TP9,AF7,AF8,TP10
-35.15625,-42.96875,-48.828125,-33.203125
-42.96875,-48.828125,-51.26953125,-39.0625
-37.59765625,-46.875,-49.8046875,-36.1328125
-28.80859375,-38.0859375,-41.9921875,-30.76171875
-28.80859375,-36.62109375,-38.57421875,-29.296875
-32.2265625,-37.109375,-44.43359375,-28.80859375
-33.69140625,-46.38671875,-42.96875,-30.2734375
-31.73828125,-55.6640625,-38.0859375,-27.83203125
-36.62109375,-56.15234375,-43.45703125,-26.3671875
-45.41015625,-59.5703125,-44.921875,-31.73828125
-52.24609375,-60.546875,-43.9453125,-45.8984375
-61.03515625,-57.12890625,-51.7578125,-56.640625
-60.05859375,-56.640625,-50.29296875,-54.19921875
-55.6640625,-54.6875,-41.015625,-49.8046875
-57.12890625,-48.33984375,-36.62109375,-50.78125
-63.4765625,-56.15234375,-41.015625,-55.17578125
-62.5,-64.94140625,-43.9453125,-53.22265625
-46.875,-53.7109375,-44.43359375,-41.015625
-38.0859375,-44.43359375,-45.8984375,-37.109375
-42.96875,-48.33984375,-46.38671875,-51.7578125
-50.29296875,-53.22265625,-48.828125,-57.12890625
-50.78125,-56.15234375,-44.921875,-57.6171875
-49.31640625,-57.12890625,-41.50390625,-54.6875
-40.0390625,-48.33984375,-41.015625,-46.875
-34.1796875,-45.41015625,-43.9453125,-40.52734375
-35.64453125,-46.38671875,-45.8984375,-41.9921875
-42.48046875,-47.8515625,-51.26953125,-54.19921875
-44.921875,-55.6640625,-54.19921875,-57.12890625
-39.55078125,-55.6640625,-48.33984375,-53.22265625
-34.66796875,-41.9921875,-45.41015625,-52.734375
-36.62109375,-40.52734375,-45.8984375,-53.7109375
-50.29296875,-55.17578125,-44.921875,-57.12890625
-62.01171875,-62.01171875,-42.96875,-60.546875
-55.6640625,-61.5234375,-44.43359375,-50.29296875
-43.9453125,-50.78125,-48.33984375,-40.52734375
-56.640625,-44.921875,-57.6171875,-59.5703125
-69.3359375,-53.7109375,-57.6171875,-72.75390625
-67.87109375,-59.5703125,-46.875,-63.4765625
-59.5703125,-51.7578125,-46.38671875,-50.78125
-54.19921875,-44.43359375,-54.6875,-51.26953125
-53.22265625,-47.8515625,-56.15234375,-51.7578125
-45.41015625,-46.875,-52.24609375,-46.38671875
-45.8984375,-51.26953125,-46.875,-45.8984375
-48.828125,-60.546875,-45.8984375,-42.48046875
-36.62109375,-52.24609375,-44.921875,-29.78515625
-31.73828125,-43.45703125,-43.45703125,-28.80859375
-36.1328125,-47.8515625,-45.8984375,-44.43359375
-44.43359375,-55.17578125,-48.33984375,-45.41015625
-48.33984375,-55.17578125,-49.31640625,-45.41015625
-46.38671875,-53.7109375,-48.33984375,-50.78125
-48.33984375,-52.734375,-49.31640625,-49.8046875
-53.7109375,-50.29296875,-54.6875,-53.7109375
-67.3828125,-48.828125,-57.12890625,-63.4765625
-66.40625,-42.48046875,-51.26953125,-60.546875
-56.640625,-36.1328125,-50.29296875,-48.828125
-58.59375,-44.43359375,-49.31640625,-48.33984375
-63.96484375,-48.33984375,-45.41015625,-59.5703125
-68.359375,-48.828125,-46.875,-62.98828125
-67.87109375,-49.31640625,-43.9453125,-52.24609375
-65.4296875,-44.43359375,-38.0859375,-45.41015625
-65.4296875,-41.9921875,-36.62109375,-46.875
-61.5234375,-43.9453125,-37.109375,-39.55078125
-55.6640625,-50.29296875,-40.0390625,-36.1328125
-49.8046875,-53.22265625,-46.38671875,-41.50390625
-48.828125,-46.875,-53.22265625,-45.8984375
-48.33984375,-37.109375,-49.31640625,-52.24609375
-52.734375,-41.015625,-51.7578125,-58.59375
-59.08203125,-50.29296875,-55.6640625,-61.03515625
-63.96484375,-55.6640625,-50.29296875,-59.5703125
-57.6171875,-58.59375,-45.8984375,-45.41015625
-40.0390625,-50.29296875,-45.8984375,-38.0859375
-42.48046875,-47.36328125,-50.29296875,-46.38671875
-47.8515625,-48.33984375,-51.7578125,-43.9453125
-41.015625,-48.33984375,-49.31640625,-35.15625
-38.0859375,-47.8515625,-48.828125,-29.78515625
-34.1796875,-42.96875,-47.36328125,-24.4140625
-40.52734375,-40.0390625,-50.78125,-36.1328125
-49.8046875,-44.43359375,-56.640625,-52.24609375
-48.828125,-50.78125,-50.29296875,-52.734375
-48.33984375,-51.7578125,-39.0625,-50.29296875
-44.921875,-49.8046875,-36.1328125,-47.8515625
-49.8046875,-52.734375,-38.0859375,-48.828125
-53.7109375,-55.17578125,-40.52734375,-52.734375
-60.546875,-51.7578125,-47.36328125,-53.7109375
-65.4296875,-52.24609375,-46.875,-53.22265625
-62.5,-57.12890625,-45.41015625,-55.17578125
-62.01171875,-55.17578125,-49.31640625,-62.98828125
-56.640625,-50.29296875,-49.31640625,-72.75390625
-54.19921875,-54.19921875,-51.26953125,-71.77734375
-56.15234375,-49.8046875,-51.26953125,-61.5234375
-52.734375,-46.875,-46.875,-57.12890625
-44.921875,-51.26953125,-51.26953125,-58.10546875
-40.0390625,-49.31640625,-51.26953125,-56.640625
-44.921875,-50.78125,-57.6171875,-62.01171875
-42.48046875,-47.8515625,-63.4765625,-60.546875
-33.203125,-43.45703125,-52.24609375,-52.24609375
-32.2265625,-40.52734375,-46.875,-49.8046875
-38.0859375,-42.48046875,-54.19921875,-54.19921875
-42.48046875,-48.33984375,-52.24609375,-53.22265625
-44.921875,-53.7109375,-44.921875,-45.8984375
-43.9453125,-56.640625,-47.8515625,-39.55078125
-41.9921875,-50.29296875,-51.26953125,-34.1796875
-49.8046875,-56.15234375,-52.24609375,-40.0390625
-56.640625,-66.89453125,-51.26953125,-42.96875
-51.7578125,-65.4296875,-48.33984375,-37.109375
-47.36328125,-59.5703125,-49.8046875,-37.59765625
-52.24609375,-56.15234375,-52.24609375,-44.921875
-48.828125,-51.7578125,-48.33984375,-42.96875
-49.8046875,-54.6875,-51.7578125,-45.41015625
-55.17578125,-60.05859375,-50.29296875,-44.921875
-50.29296875,-49.31640625,-42.96875,-39.0625
-46.38671875,-47.36328125,-40.52734375,-45.8984375
-44.43359375,-50.29296875,-38.0859375,-55.17578125
-43.9453125,-50.78125,-43.9453125,-57.12890625
-40.52734375,-48.828125,-45.41015625,-49.31640625
-39.0625,-46.38671875,-41.50390625,-42.96875
-39.55078125,-48.33984375,-47.8515625,-42.48046875
-35.64453125,-43.9453125,-48.828125,-44.43359375
-35.64453125,-44.43359375,-40.52734375,-40.52734375
-39.55078125,-49.31640625,-34.1796875,-34.1796875
-35.15625,-51.26953125,-41.015625,-26.85546875
-20.99609375,-45.41015625,-47.36328125,-21.97265625
-23.92578125,-44.921875,-47.36328125,-26.85546875
-38.0859375,-48.828125,-51.7578125,-37.59765625
-41.015625,-48.828125,-52.734375,-41.015625
-37.59765625,-41.9921875,-45.8984375,-36.62109375
-38.57421875,-37.59765625,-41.50390625,-35.15625
-48.828125,-41.9921875,-44.43359375,-41.50390625
-61.5234375,-49.8046875,-50.29296875,-53.7109375
-67.87109375,-55.6640625,-57.6171875,-54.19921875
-63.96484375,-49.8046875,-59.08203125,-49.8046875
-52.734375,-43.45703125,-54.6875,-51.7578125
-43.45703125,-40.52734375,-53.7109375,-55.17578125
-52.734375,-47.8515625,-53.7109375,-66.40625
-61.5234375,-56.15234375,-53.22265625,-79.1015625
-52.24609375,-57.6171875,-55.17578125,-74.70703125
-45.8984375,-55.6640625,-54.19921875,-63.4765625
-40.0390625,-47.36328125,-50.29296875,-54.19921875
-44.43359375,-46.38671875,-52.24609375,-55.17578125
-50.29296875,-60.05859375,-57.12890625,-58.10546875
-35.64453125,-58.10546875,-55.6640625,-46.38671875
-21.97265625,-43.9453125,-44.921875,-32.2265625
-24.90234375,-44.43359375,-43.9453125,-31.25
-32.2265625,-51.26953125,-51.26953125,-37.59765625
-30.2734375,-53.22265625,-47.8515625,-36.1328125
-33.203125,-57.12890625,-49.31640625,-32.71484375
-35.64453125,-55.6640625,-53.22265625,-34.1796875
-35.15625,-52.24609375,-48.33984375,-33.203125
-44.43359375,-52.734375,-48.33984375,-34.66796875
-50.78125,-51.26953125,-48.33984375,-38.57421875
-55.17578125,-56.15234375,-53.22265625,-42.96875
-48.828125,-58.59375,-59.08203125,-41.015625
-41.015625,-47.36328125,-52.734375,-41.9921875
-52.24609375,-47.8515625,-47.36328125,-51.7578125
-66.40625,-54.6875,-48.33984375,-59.5703125
-65.4296875,-54.19921875,-55.17578125,-63.4765625
-66.89453125,-51.7578125,-52.24609375,-65.91796875
-64.453125,-44.43359375,-43.45703125,-64.453125
-61.03515625,-39.0625,-47.8515625,-64.94140625
-67.3828125,-42.48046875,-57.12890625,-70.3125
-66.40625,-49.8046875,-48.828125,-62.5
-61.5234375,-46.875,-38.57421875,-49.31640625
-60.05859375,-38.0859375,-42.48046875,-46.38671875
-61.5234375,-38.57421875,-53.7109375,-55.6640625
-58.59375,-46.875,-50.29296875,-56.640625
-53.7109375,-55.6640625,-41.9921875,-47.36328125
-47.36328125,-49.31640625,-45.8984375,-39.55078125
-47.36328125,-37.59765625,-54.6875,-42.48046875
-48.828125,-39.0625,-54.6875,-44.43359375
-50.29296875,-49.8046875,-41.50390625,-36.62109375
-63.96484375,-62.01171875,-39.55078125,-45.8984375
-67.87109375,-61.5234375,-43.9453125,-51.26953125
-61.5234375,-55.6640625,-41.9921875,-41.9921875
-55.17578125,-54.6875,-41.015625,-34.1796875
-54.6875,-49.8046875,-45.41015625,-40.0390625
-52.734375,-47.8515625,-47.8515625,-42.96875
-52.734375,-51.26953125,-41.50390625,-45.8984375
-57.6171875,-50.78125,-40.0390625,-58.10546875
-55.17578125,-47.8515625,-42.96875,-61.03515625
-67.3828125,-44.43359375,-45.41015625,-73.73046875
-72.75390625,-43.45703125,-44.43359375,-74.21875
-63.4765625,-44.43359375,-47.8515625,-63.4765625
-61.5234375,-42.48046875,-49.8046875,-62.01171875
-57.6171875,-39.0625,-41.9921875,-61.5234375
-60.546875,-47.8515625,-42.96875,-66.40625
-69.3359375,-53.7109375,-43.9453125,-68.359375
-67.3828125,-57.6171875,-41.015625,-59.5703125
-55.6640625,-55.17578125,-44.43359375,-52.734375
-52.24609375,-44.921875,-49.8046875,-51.7578125
-63.4765625,-54.19921875,-60.546875,-63.4765625
-60.05859375,-58.59375,-61.03515625,-59.5703125
-49.8046875,-53.22265625,-47.36328125,-44.921875
-52.24609375,-50.78125,-42.96875,-46.875
-44.921875,-50.78125,-41.50390625,-42.48046875
-41.015625,-51.26953125,-49.8046875,-42.48046875
-54.6875,-51.26953125,-55.6640625,-50.78125
-60.546875,-53.7109375,-54.19921875,-53.22265625
-58.10546875,-46.875,-56.640625,-48.828125
-54.6875,-37.59765625,-49.8046875,-52.24609375
-52.734375,-42.48046875,-43.9453125,-58.10546875
-56.15234375,-44.921875,-53.7109375,-62.5
-61.03515625,-40.52734375,-57.12890625,-72.265625
-56.15234375,-38.57421875,-48.828125,-70.3125
-46.38671875,-31.25,-49.31640625,-60.05859375
-43.45703125,-30.2734375,-48.33984375,-55.6640625
-48.33984375,-39.55078125,-48.33984375,-58.59375
-48.33984375,-43.9453125,-52.24609375,-62.01171875
-44.43359375,-46.875,-51.26953125,-59.5703125
-41.015625,-47.36328125,-53.22265625,-54.6875
-35.64453125,-40.52734375,-53.7109375,-46.38671875
-34.66796875,-36.62109375,-49.8046875,-43.45703125
-44.43359375,-43.9453125,-52.24609375,-44.921875
-45.8984375,-48.828125,-53.22265625,-39.55078125
-40.52734375,-43.45703125,-47.36328125,-34.66796875
-39.55078125,-40.0390625,-43.45703125,-32.71484375
-44.921875,-41.9921875,-44.43359375,-36.62109375
-53.7109375,-53.7109375,-54.19921875,-41.9921875
-52.24609375,-57.6171875,-57.6171875,-39.0625
-49.8046875,-50.29296875,-56.640625,-41.015625
-44.921875,-44.921875,-55.17578125,-44.43359375
-40.52734375,-42.96875,-52.734375,-41.015625
-47.36328125,-43.45703125,-47.36328125,-45.41015625
-55.17578125,-49.8046875,-47.8515625,-50.78125
-46.875,-50.78125,-46.38671875,-46.38671875
-44.43359375,-46.875,-41.015625,-47.36328125
-49.8046875,-49.31640625,-44.921875,-60.05859375
-45.41015625,-50.29296875,-50.78125,-60.05859375
-45.8984375,-53.22265625,-41.50390625,-49.8046875
-38.0859375,-56.15234375,-33.203125,-43.45703125
-26.85546875,-43.9453125,-39.55078125,-38.57421875
-37.59765625,-41.50390625,-46.875,-48.828125
-45.41015625,-49.8046875,-54.6875,-57.12890625
-37.109375,-49.8046875,-59.5703125,-45.8984375
-30.2734375,-48.828125,-48.828125,-25.87890625
-35.15625,-44.43359375,-42.96875,-22.4609375
-49.8046875,-48.33984375,-56.15234375,-41.50390625
-56.15234375,-57.6171875,-55.17578125,-49.8046875
-53.22265625,-57.6171875,-44.43359375,-41.50390625
-44.43359375,-50.29296875,-41.015625,-32.2265625
-48.33984375,-46.38671875,-40.0390625,-38.57421875
-63.96484375,-53.22265625,-42.96875,-51.26953125
-61.5234375,-62.98828125,-49.8046875,-50.78125
-52.24609375,-54.19921875,-60.546875,-50.78125
-50.29296875,-43.45703125,-63.96484375,-52.24609375
-47.36328125,-41.50390625,-51.7578125,-46.38671875
-51.26953125,-38.57421875,-41.9921875,-49.8046875
-56.640625,-48.33984375,-45.41015625,-53.7109375
-63.96484375,-60.05859375,-55.6640625,-56.640625
-63.4765625,-51.26953125,-62.01171875,-59.08203125
-61.03515625,-48.33984375,-58.10546875,-55.17578125
-61.5234375,-50.29296875,-51.26953125,-54.19921875
-55.6640625,-48.828125,-48.828125,-53.22265625
-57.12890625,-54.19921875,-40.52734375,-52.734375
-55.17578125,-54.6875,-39.0625,-44.43359375
-42.48046875,-47.36328125,-39.0625,-36.62109375
-45.41015625,-43.45703125,-37.109375,-41.50390625
-49.8046875,-49.8046875,-35.15625,-40.0390625
-47.36328125,-52.24609375,-41.50390625,-32.71484375
-47.36328125,-46.875,-49.8046875,-32.2265625
-45.41015625,-49.31640625,-39.55078125,-33.203125
-46.38671875,-45.41015625,-31.25,-31.25
-48.33984375,-38.57421875,-40.0390625,-32.71484375
-52.24609375,-44.43359375,-41.50390625,-36.1328125
-55.6640625,-54.19921875,-40.52734375,-41.015625
-46.875,-51.7578125,-46.38671875,-42.96875
-43.45703125,-46.875,-42.96875,-41.9921875
-50.29296875,-51.7578125,-41.50390625,-45.41015625
-47.36328125,-56.640625,-44.43359375,-41.9921875
-41.015625,-52.24609375,-52.734375,-38.57421875
-40.0390625,-40.52734375,-60.05859375,-48.828125
-40.52734375,-40.0390625,-47.8515625,-51.26953125
-44.921875,-48.33984375,-41.9921875,-53.7109375
-51.7578125,-48.33984375,-51.26953125,-60.546875
-51.26953125,-54.19921875,-50.78125,-50.78125
-45.8984375,-52.734375,-48.828125,-38.57421875
-38.0859375,-43.45703125,-44.43359375,-37.109375
-35.64453125,-46.875,-44.921875,-40.0390625
-43.9453125,-55.17578125,-52.24609375,-44.43359375
-49.31640625,-52.734375,-47.36328125,-45.8984375
-44.43359375,-50.29296875,-42.48046875,-43.9453125
-42.48046875,-46.38671875,-44.921875,-45.8984375
-50.29296875,-40.0390625,-47.8515625,-52.24609375
-55.6640625,-51.26953125,-50.29296875,-57.12890625
-62.98828125,-63.4765625,-49.8046875,-58.59375
-63.96484375,-63.4765625,-46.38671875,-51.7578125
-54.6875,-57.6171875,-43.45703125,-46.38671875
-52.734375,-47.36328125,-50.78125,-51.7578125
-51.7578125,-41.9921875,-60.05859375,-55.17578125
-53.7109375,-49.31640625,-49.8046875,-50.78125
-51.7578125,-52.24609375,-35.64453125,-44.921875
-41.9921875,-44.43359375,-33.203125,-39.55078125
-42.96875,-41.015625,-35.64453125,-41.015625
-54.19921875,-55.6640625,-37.109375,-49.8046875
-60.546875,-56.640625,-40.52734375,-52.734375
-56.15234375,-47.36328125,-44.43359375,-51.7578125
-46.38671875,-44.43359375,-43.45703125,-48.33984375
-51.26953125,-48.33984375,-48.828125,-47.8515625
-54.6875,-57.6171875,-54.19921875,-51.7578125
-47.8515625,-60.05859375,-49.8046875,-48.33984375
-50.78125,-59.08203125,-50.29296875,-45.41015625
-48.828125,-48.828125,-47.36328125,-41.50390625
-48.33984375,-46.875,-42.48046875,-36.1328125
-46.875,-53.22265625,-37.59765625,-28.3203125
-46.38671875,-55.17578125,-42.96875,-34.66796875
-41.9921875,-52.24609375,-51.7578125,-44.921875
-33.69140625,-42.48046875,-47.36328125,-43.45703125
-36.1328125,-40.52734375,-44.921875,-47.36328125
-44.43359375,-45.8984375,-49.8046875,-53.22265625
-49.31640625,-50.29296875,-49.8046875,-52.734375
-48.33984375,-54.19921875,-48.828125,-41.9921875
-40.0390625,-43.45703125,-55.6640625,-34.1796875
-36.1328125,-39.0625,-56.15234375,-40.52734375
-40.52734375,-43.9453125,-48.828125,-45.8984375
-47.36328125,-47.8515625,-40.52734375,-44.43359375
-54.6875,-52.734375,-44.921875,-45.41015625
-56.15234375,-53.22265625,-48.828125,-50.29296875
-44.43359375,-44.921875,-46.38671875,-48.828125
-41.50390625,-39.55078125,-47.8515625,-52.24609375
-55.6640625,-52.734375,-44.921875,-58.10546875
-61.5234375,-60.05859375,-46.38671875,-55.17578125
-48.33984375,-51.26953125,-51.7578125,-48.33984375
-41.015625,-43.45703125,-53.7109375,-49.8046875
-45.8984375,-43.45703125,-52.24609375,-57.12890625
-50.29296875,-48.828125,-47.36328125,-57.6171875
-61.03515625,-54.6875,-49.31640625,-61.5234375
-53.22265625,-53.22265625,-48.33984375,-55.17578125
-36.62109375,-46.875,-50.78125,-43.9453125
-40.52734375,-43.9453125,-54.19921875,-49.31640625
-45.41015625,-48.828125,-51.26953125,-54.6875
-45.8984375,-48.828125,-52.24609375,-50.78125
-49.31640625,-47.8515625,-54.6875,-49.31640625
-50.29296875,-49.8046875,-56.15234375,-53.22265625
-47.36328125,-44.43359375,-49.31640625,-53.7109375
-47.36328125,-44.43359375,-46.875,-51.26953125
-44.43359375,-44.921875,-49.8046875,-51.26953125
-46.38671875,-46.38671875,-48.33984375,-52.734375
-42.48046875,-44.43359375,-43.9453125,-44.921875
-35.64453125,-34.66796875,-42.48046875,-35.64453125
-52.24609375,-41.015625,-48.828125,-47.8515625
-65.91796875,-52.734375,-53.22265625,-61.5234375
-58.59375,-47.8515625,-43.9453125,-51.26953125
-46.38671875,-36.1328125,-40.52734375,-43.9453125
-51.7578125,-35.64453125,-40.52734375,-44.43359375
-64.94140625,-48.33984375,-37.59765625,-53.7109375
-70.3125,-57.6171875,-41.015625,-62.98828125
-63.96484375,-54.19921875,-44.921875,-57.6171875
-53.22265625,-46.875,-48.828125,-50.29296875
-49.31640625,-44.43359375,-42.48046875,-45.8984375
-55.6640625,-49.31640625,-47.36328125,-52.24609375
-58.59375,-51.7578125,-57.6171875,-61.5234375
-52.24609375,-49.8046875,-54.6875,-59.08203125
-41.50390625,-48.828125,-51.26953125,-47.36328125
-34.1796875,-41.9921875,-48.828125,-41.50390625
-41.015625,-38.0859375,-47.8515625,-44.921875
-41.50390625,-36.62109375,-46.875,-43.9453125
-37.59765625,-44.921875,-47.8515625,-35.64453125
-40.0390625,-51.7578125,-45.41015625,-39.0625
-37.59765625,-43.45703125,-44.43359375,-47.36328125
-46.38671875,-48.828125,-52.24609375,-53.7109375
-50.29296875,-53.22265625,-54.6875,-57.6171875
-41.9921875,-45.41015625,-48.33984375,-53.7109375
-41.50390625,-40.0390625,-43.45703125,-51.7578125
-43.45703125,-33.69140625,-41.50390625,-55.6640625
-45.8984375,-33.69140625,-41.015625,-56.640625
-48.33984375,-41.50390625,-41.50390625,-48.828125
-48.33984375,-42.96875,-41.50390625,-41.50390625
-47.8515625,-40.0390625,-44.43359375,-42.96875
-46.875,-36.1328125,-48.33984375,-44.43359375
-54.19921875,-35.64453125,-52.24609375,-49.31640625
-70.80078125,-49.31640625,-53.22265625,-58.59375
-71.2890625,-52.734375,-47.8515625,-55.6640625
-64.453125,-49.31640625,-42.96875,-52.24609375
-62.5,-47.36328125,-41.015625,-52.24609375
-63.4765625,-44.921875,-44.921875,-55.6640625
-72.265625,-45.41015625,-52.24609375,-65.4296875
-73.2421875,-49.8046875,-51.26953125,-62.5
-64.453125,-51.26953125,-46.875,-56.15234375
-54.6875,-41.50390625,-42.48046875,-52.24609375
-51.7578125,-38.57421875,-42.96875,-59.5703125
-60.05859375,-44.43359375,-48.828125,-73.73046875
-66.89453125,-47.8515625,-54.19921875,-78.61328125
-55.17578125,-45.8984375,-53.22265625,-66.40625
-45.8984375,-41.50390625,-43.45703125,-51.26953125
-49.31640625,-40.52734375,-39.55078125,-46.875
-55.6640625,-48.33984375,-44.921875,-48.828125
-55.6640625,-56.640625,-49.31640625,-50.29296875
-47.36328125,-54.6875,-42.96875,-35.15625
-43.45703125,-49.8046875,-38.0859375,-26.3671875
-43.45703125,-40.52734375,-40.0390625,-33.203125
-54.19921875,-37.109375,-47.36328125,-41.50390625
-55.6640625,-40.0390625,-46.38671875,-40.52734375
-44.921875,-43.45703125,-44.43359375,-37.109375
-35.15625,-43.45703125,-47.8515625,-38.0859375
-31.73828125,-36.62109375,-45.8984375,-41.50390625
-36.62109375,-39.55078125,-41.50390625,-45.8984375
-45.41015625,-50.78125,-39.0625,-47.8515625
-47.36328125,-53.7109375,-39.55078125,-39.0625
-41.50390625,-44.43359375,-39.55078125,-36.62109375
-44.921875,-37.109375,-41.9921875,-44.921875
-55.17578125,-48.33984375,-44.43359375,-50.29296875
-59.5703125,-61.5234375,-46.875,-51.26953125
-52.24609375,-55.6640625,-45.8984375,-50.29296875
-52.24609375,-47.36328125,-47.8515625,-56.640625
-60.546875,-47.8515625,-48.828125,-67.87109375
-63.4765625,-48.828125,-50.78125,-71.2890625
-55.6640625,-48.828125,-50.29296875,-62.5
-53.22265625,-51.26953125,-42.96875,-51.7578125
-50.78125,-46.38671875,-41.50390625,-46.38671875
-43.9453125,-37.109375,-37.109375,-42.96875
-48.33984375,-41.50390625,-30.76171875,-41.9921875
-48.828125,-47.36328125,-33.69140625,-39.55078125
-45.8984375,-47.8515625,-40.0390625,-33.203125
-50.29296875,-49.31640625,-43.9453125,-34.1796875
-46.38671875,-39.0625,-45.8984375,-38.0859375
-35.15625,-25.87890625,-42.96875,-32.2265625
-41.015625,-41.015625,-47.36328125,-36.62109375
-48.828125,-49.31640625,-52.24609375,-45.41015625
-42.96875,-39.55078125,-50.78125,-41.9921875
-43.9453125,-37.59765625,-40.52734375,-41.50390625
-41.9921875,-36.1328125,-31.73828125,-41.015625
-43.9453125,-37.109375,-36.1328125,-48.828125
-51.7578125,-43.45703125,-40.52734375,-66.89453125
-49.8046875,-45.41015625,-45.8984375,-65.4296875
-42.48046875,-38.57421875,-46.875,-56.15234375
-42.96875,-38.57421875,-41.50390625,-55.17578125
-46.875,-42.48046875,-41.015625,-64.94140625
-51.7578125,-46.38671875,-44.43359375,-70.80078125
-48.828125,-46.38671875,-40.52734375,-56.15234375
-36.62109375,-35.64453125,-35.64453125,-38.57421875
-32.71484375,-34.1796875,-27.83203125,-29.296875
-47.8515625,-44.921875,-22.94921875,-37.59765625
-59.5703125,-57.12890625,-36.62109375,-46.875
-49.8046875,-53.7109375,-41.015625,-38.57421875
-50.29296875,-40.52734375,-33.69140625,-39.0625
-57.6171875,-39.55078125,-34.66796875,-50.78125
-53.22265625,-41.50390625,-35.64453125,-51.26953125
-47.36328125,-43.9453125,-38.0859375,-47.8515625
-49.8046875,-49.8046875,-41.50390625,-49.8046875
-38.57421875,-44.43359375,-37.109375,-40.0390625
-33.69140625,-42.48046875,-39.0625,-37.109375
-39.0625,-43.9453125,-45.41015625,-48.33984375
-52.734375,-46.875,-51.7578125,-67.87109375
-56.640625,-49.8046875,-53.7109375,-73.2421875
-43.9453125,-50.29296875,-48.33984375,-59.5703125
-40.0390625,-51.26953125,-45.8984375,-58.10546875
-42.96875,-51.7578125,-48.828125,-59.5703125
-51.7578125,-55.17578125,-57.12890625,-62.5
-56.640625,-49.8046875,-57.6171875,-62.98828125
-59.08203125,-47.8515625,-50.78125,-58.59375
-49.31640625,-43.45703125,-43.45703125,-43.9453125
-53.22265625,-44.921875,-48.33984375,-47.8515625
-68.359375,-56.640625,-52.734375,-59.5703125
-60.05859375,-54.6875,-48.828125,-49.31640625
-55.6640625,-53.22265625,-48.828125,-44.921875
-53.7109375,-50.78125,-40.0390625,-36.62109375
-51.26953125,-43.9453125,-34.66796875,-32.2265625
-58.10546875,-45.41015625,-43.45703125,-41.9921875
-67.87109375,-51.7578125,-50.78125,-46.875
-62.5,-43.9453125,-47.8515625,-40.52734375
-48.828125,-40.0390625,-44.43359375,-35.15625
-39.55078125,-41.9921875,-45.41015625,-33.69140625
-35.64453125,-42.48046875,-47.8515625,-33.69140625
-31.73828125,-47.36328125,-50.29296875,-40.52734375
-31.25,-45.41015625,-50.29296875,-45.41015625
-32.71484375,-44.921875,-46.875,-46.875
-30.76171875,-46.875,-41.015625,-42.96875
-32.71484375,-46.38671875,-45.8984375,-49.31640625
-37.109375,-47.36328125,-49.8046875,-58.59375
-38.57421875,-42.48046875,-44.43359375,-56.640625
-38.0859375,-43.45703125,-37.59765625,-55.6640625
-35.64453125,-42.96875,-34.66796875,-52.734375
-44.921875,-42.96875,-43.9453125,-56.640625
-51.7578125,-52.734375,-49.8046875,-60.546875
-52.24609375,-53.22265625,-43.9453125,-48.828125
-59.5703125,-48.33984375,-41.015625,-46.875
-64.453125,-55.17578125,-41.9921875,-57.12890625
-58.10546875,-60.546875,-35.64453125,-54.19921875
-51.26953125,-60.05859375,-40.0390625,-47.36328125
-53.22265625,-56.15234375,-47.36328125,-45.41015625
-51.26953125,-45.41015625,-43.45703125,-41.50390625
-48.33984375,-44.43359375,-43.9453125,-39.55078125
-50.78125,-48.828125,-42.96875,-44.921875
-58.59375,-49.8046875,-40.0390625,-47.8515625
-63.4765625,-55.17578125,-36.1328125,-43.9453125
-57.12890625,-57.6171875,-32.71484375,-40.0390625
-46.875,-52.24609375,-35.15625,-38.0859375
-47.36328125,-51.26953125,-44.43359375,-47.36328125
-49.8046875,-52.24609375,-50.29296875,-53.7109375
-44.43359375,-52.24609375,-49.8046875,-50.29296875
-38.0859375,-54.19921875,-45.41015625,-45.41015625
-34.66796875,-47.8515625,-38.0859375,-41.50390625
-43.9453125,-49.8046875,-36.62109375,-47.8515625
-47.8515625,-52.24609375,-41.50390625,-52.24609375
-48.33984375,-46.875,-49.31640625,-51.7578125
-43.9453125,-46.38671875,-45.8984375,-49.31640625
-44.43359375,-45.8984375,-40.52734375,-54.6875
-53.7109375,-49.31640625,-39.0625,-60.05859375
-57.12890625,-53.22265625,-39.0625,-55.17578125
-55.6640625,-55.6640625,-39.0625,-45.8984375
-50.29296875,-56.640625,-44.921875,-42.48046875
-43.9453125,-51.26953125,-50.29296875,-39.0625
-43.45703125,-48.33984375,-46.38671875,-41.015625
-49.31640625,-54.19921875,-46.875,-49.31640625
-51.7578125,-53.7109375,-57.12890625,-50.29296875
-47.8515625,-52.24609375,-54.19921875,-48.828125
-46.38671875,-50.29296875,-55.17578125,-47.36328125
-44.43359375,-42.96875,-52.734375,-44.921875
-41.015625,-45.8984375,-39.0625,-37.109375
-42.48046875,-56.15234375,-41.9921875,-37.109375
-38.0859375,-47.8515625,-45.41015625,-38.57421875
-37.59765625,-37.109375,-42.48046875,-40.52734375
-45.41015625,-42.96875,-45.8984375,-45.41015625
-44.43359375,-44.921875,-49.8046875,-44.921875
-42.48046875,-43.9453125,-49.8046875,-46.38671875
-41.9921875,-43.45703125,-50.78125,-43.45703125
-38.57421875,-40.52734375,-39.55078125,-37.109375
-37.59765625,-41.015625,-34.66796875,-37.59765625
-36.1328125,-40.52734375,-42.48046875,-42.96875
-41.9921875,-34.1796875,-40.0390625,-42.96875
-45.8984375,-41.015625,-41.50390625,-43.9453125
-43.9453125,-47.8515625,-42.96875,-47.8515625
-38.0859375,-38.0859375,-39.0625,-49.31640625
-39.55078125,-33.69140625,-52.24609375,-57.12890625
-54.19921875,-42.48046875,-57.12890625,-66.40625
-45.8984375,-43.9453125,-41.9921875,-60.05859375
-26.85546875,-36.1328125,-39.55078125,-44.921875
-27.83203125,-37.109375,-36.62109375,-42.48046875
-28.3203125,-39.0625,-31.25,-44.43359375
-20.5078125,-29.78515625,-48.33984375,-39.55078125
-25.390625,-28.3203125,-55.17578125,-35.15625
-31.73828125,-37.59765625,-53.7109375,-35.15625
-33.69140625,-40.0390625,-54.6875,-38.0859375
-40.0390625,-44.921875,-42.48046875,-36.1328125
-32.71484375,-41.50390625,-37.109375,-29.78515625
-37.59765625,-39.0625,-35.64453125,-38.0859375
-49.31640625,-49.8046875,-39.55078125,-44.921875
-39.0625,-47.8515625,-38.57421875,-34.1796875
-39.55078125,-50.78125,-33.203125,-29.78515625
-54.19921875,-66.40625,-40.0390625,-38.57421875
-60.05859375,-62.98828125,-49.8046875,-41.9921875
-50.29296875,-44.921875,-51.7578125,-39.0625
-39.0625,-36.1328125,-46.875,-33.69140625
-43.45703125,-40.0390625,-28.3203125,-37.59765625
-62.01171875,-50.78125,-29.78515625,-59.08203125
-70.3125,-57.12890625,-38.0859375,-64.94140625
-63.96484375,-50.29296875,-38.0859375,-57.6171875
-51.7578125,-39.0625,-37.109375,-51.26953125
-51.26953125,-38.57421875,-41.015625,-47.8515625
-58.59375,-44.921875,-42.96875,-43.9453125
-63.96484375,-53.7109375,-35.15625,-39.55078125
-65.4296875,-52.24609375,-40.0390625,-43.45703125
-50.78125,-41.50390625,-41.015625,-38.0859375
-42.48046875,-37.59765625,-40.0390625,-37.109375
-40.52734375,-37.59765625,-34.1796875,-38.57421875
-40.0390625,-45.41015625,-30.76171875,-38.57421875
-41.9921875,-52.24609375,-40.0390625,-38.57421875
-32.2265625,-42.96875,-39.55078125,-32.71484375
-29.78515625,-30.76171875,-38.0859375,-31.25
-38.0859375,-37.109375,-47.36328125,-36.62109375
-39.0625,-49.8046875,-47.8515625,-33.203125
-33.203125,-49.8046875,-35.15625,-23.92578125
-39.55078125,-47.36328125,-37.109375,-28.80859375
-42.48046875,-40.0390625,-41.9921875,-35.64453125
-41.9921875,-35.15625,-41.50390625,-39.0625
-50.78125,-48.33984375,-44.921875,-45.8984375
-62.5,-53.22265625,-41.50390625,-40.0390625
-64.453125,-47.36328125,-39.55078125,-36.62109375
-60.546875,-43.9453125,-37.59765625,-40.52734375
-62.5,-42.48046875,-41.015625,-46.38671875
-66.89453125,-47.36328125,-46.38671875,-59.08203125
-67.3828125,-51.7578125,-47.8515625,-63.96484375
-62.01171875,-48.828125,-52.24609375,-62.98828125
-58.59375,-40.52734375,-52.24609375,-63.96484375
-62.01171875,-40.52734375,-48.828125,-60.05859375
-67.3828125,-44.921875,-48.33984375,-62.01171875
-73.73046875,-55.17578125,-56.15234375,-77.1484375
-69.82421875,-56.640625,-57.12890625,-74.70703125
-62.5,-46.875,-55.6640625,-63.4765625
-58.10546875,-41.50390625,-52.734375,-60.546875
-57.6171875,-52.734375,-48.828125,-58.59375
-63.4765625,-68.359375,-47.8515625,-50.29296875
-52.24609375,-59.5703125,-49.31640625,-43.45703125
-41.9921875,-41.50390625,-55.6640625,-50.29296875
-46.875,-37.59765625,-51.7578125,-52.734375
-58.10546875,-49.8046875,-51.26953125,-62.5
-62.98828125,-59.5703125,-51.26953125,-58.10546875
-52.24609375,-59.08203125,-45.8984375,-42.48046875
-42.96875,-47.8515625,-50.78125,-45.8984375
-41.015625,-40.0390625,-56.640625,-53.22265625
-38.57421875,-47.36328125,-53.22265625,-52.24609375
-38.57421875,-50.29296875,-47.8515625,-44.921875
-41.50390625,-44.43359375,-48.33984375,-45.41015625
-44.921875,-41.9921875,-47.36328125,-51.26953125
-49.8046875,-39.0625,-44.43359375,-52.734375
-54.19921875,-38.0859375,-46.38671875,-52.734375
-54.6875,-48.33984375,-51.26953125,-52.24609375
-53.7109375,-55.6640625,-56.15234375,-47.36328125
-51.7578125,-45.8984375,-54.19921875,-47.8515625
-48.33984375,-38.0859375,-44.921875,-48.828125
-43.9453125,-38.57421875,-45.41015625,-45.41015625
-42.48046875,-41.50390625,-50.78125,-46.875
-41.015625,-42.48046875,-51.7578125,-49.8046875
-36.1328125,-38.57421875,-47.8515625,-43.45703125
-41.015625,-39.0625,-42.96875,-42.48046875
-43.9453125,-40.52734375,-41.015625,-46.38671875
-44.921875,-39.0625,-40.52734375,-41.50390625
-55.6640625,-40.0390625,-43.9453125,-39.0625
-65.91796875,-47.36328125,-54.6875,-46.875
-60.546875,-44.43359375,-48.33984375,-46.38671875
-59.5703125,-42.48046875,-39.0625,-42.96875
-64.453125,-46.875,-47.36328125,-45.8984375
-58.59375,-44.921875,-44.921875,-45.8984375
-51.7578125,-43.9453125,-39.55078125,-42.48046875
-46.875,-40.0390625,-32.71484375,-41.015625
-50.78125,-42.96875,-29.78515625,-41.015625
-58.59375,-49.8046875,-33.69140625,-47.36328125
-57.6171875,-51.26953125,-34.66796875,-48.33984375
-48.33984375,-43.9453125,-34.1796875,-41.015625
-39.0625,-40.52734375,-28.80859375,-37.109375
-42.48046875,-49.8046875,-37.109375,-44.43359375
-47.8515625,-53.22265625,-51.26953125,-54.19921875
-42.96875,-50.78125,-51.26953125,-50.29296875
-42.96875,-48.828125,-41.015625,-49.31640625
-45.41015625,-41.50390625,-37.59765625,-59.08203125
-46.38671875,-42.96875,-41.50390625,-63.4765625
-49.31640625,-48.828125,-43.45703125,-61.5234375
-52.734375,-51.26953125,-48.828125,-60.546875
-42.96875,-49.8046875,-45.41015625,-52.24609375
-39.55078125,-41.50390625,-43.9453125,-41.015625
-43.9453125,-35.15625,-41.50390625,-38.0859375
-53.22265625,-46.875,-40.52734375,-53.7109375
-61.03515625,-60.05859375,-42.48046875,-61.03515625
-54.19921875,-52.734375,-41.015625,-53.22265625
-43.9453125,-40.52734375,-41.015625,-49.8046875
-36.62109375,-40.0390625,-39.55078125,-47.36328125
-44.921875,-49.8046875,-38.57421875,-49.8046875
-46.38671875,-53.22265625,-36.62109375,-48.33984375
-34.66796875,-51.7578125,-41.015625,-42.48046875
-32.2265625,-43.9453125,-49.31640625,-49.31640625
-42.96875,-45.8984375,-55.6640625,-55.6640625
-45.8984375,-54.19921875,-53.22265625,-46.38671875
-45.41015625,-50.78125,-46.875,-39.0625
-48.828125,-58.59375,-53.22265625,-40.52734375
-46.38671875,-62.01171875,-51.26953125,-40.52734375
-44.43359375,-53.22265625,-44.921875,-40.0390625
-47.8515625,-56.15234375,-49.8046875,-36.62109375
-49.31640625,-56.640625,-49.31640625,-34.1796875
-42.96875,-52.24609375,-44.43359375,-30.2734375
-41.50390625,-46.875,-41.50390625,-27.83203125
-52.24609375,-43.45703125,-39.55078125,-36.62109375
-65.4296875,-45.41015625,-42.96875,-53.22265625
-62.01171875,-46.38671875,-46.875,-64.94140625
-59.5703125,-49.31640625,-46.38671875,-61.5234375
-64.453125,-49.8046875,-41.015625,-58.10546875
-68.84765625,-44.43359375,-36.1328125,-64.453125
-64.453125,-49.31640625,-36.1328125,-62.98828125
-53.22265625,-55.6640625,-40.0390625,-52.734375
-57.12890625,-52.24609375,-45.41015625,-56.15234375
-53.7109375,-43.9453125,-44.921875,-57.6171875
-39.0625,-28.3203125,-45.41015625,-54.6875
-43.45703125,-23.92578125,-50.29296875,-55.17578125
-46.38671875,-30.76171875,-55.17578125,-50.78125
-46.875,-40.0390625,-57.12890625,-43.45703125
-43.9453125,-41.50390625,-48.33984375,-31.25
-45.8984375,-42.96875,-44.921875,-34.1796875
-60.05859375,-45.8984375,-48.33984375,-48.33984375
-67.3828125,-52.24609375,-50.78125,-56.15234375
-66.89453125,-56.640625,-46.875,-55.17578125
-64.453125,-50.29296875,-44.43359375,-54.19921875
-57.12890625,-46.875,-50.78125,-55.6640625
-55.17578125,-50.78125,-48.828125,-58.59375
-62.01171875,-56.15234375,-47.8515625,-65.4296875
-55.17578125,-55.17578125,-48.828125,-59.5703125
-46.38671875,-53.7109375,-43.9453125,-49.8046875
-45.8984375,-53.22265625,-46.38671875,-54.6875
-44.921875,-45.8984375,-51.7578125,-60.05859375
-48.828125,-46.875,-48.828125,-63.4765625
-55.17578125,-56.15234375,-47.36328125,-65.4296875
-55.17578125,-60.546875,-44.921875,-57.12890625
-56.15234375,-55.6640625,-40.52734375,-52.734375
-62.01171875,-55.17578125,-43.45703125,-54.6875
-65.4296875,-58.10546875,-44.921875,-61.5234375
-69.82421875,-52.24609375,-45.8984375,-64.94140625
-68.359375,-46.38671875,-49.8046875,-58.59375
-58.59375,-46.38671875,-49.31640625,-49.8046875
-55.17578125,-45.41015625,-50.78125,-46.875
-50.29296875,-41.015625,-50.78125,-49.8046875
-53.7109375,-48.828125,-45.8984375,-45.41015625
-53.22265625,-52.734375,-44.921875,-37.109375
-41.50390625,-41.9921875,-43.45703125,-33.69140625
-42.48046875,-37.59765625,-41.50390625,-33.69140625
-44.921875,-41.9921875,-42.48046875,-35.15625
-49.31640625,-52.734375,-45.8984375,-39.0625
-46.875,-58.59375,-43.45703125,-37.109375
-34.1796875,-52.24609375,-40.52734375,-32.2265625
-34.1796875,-46.875,-37.109375,-35.15625
-37.59765625,-45.8984375,-39.0625,-40.52734375
-41.50390625,-48.33984375,-42.48046875,-48.828125
-48.828125,-50.78125,-45.8984375,-50.78125
-48.828125,-50.78125,-48.828125,-50.29296875
-45.41015625,-51.26953125,-47.36328125,-56.640625
-46.38671875,-49.31640625,-49.31640625,-60.546875
-48.828125,-47.8515625,-50.78125,-60.546875
-44.921875,-51.7578125,-50.78125,-59.08203125
-39.55078125,-51.7578125,-47.8515625,-54.19921875
-31.73828125,-40.0390625,-46.875,-54.6875
-37.59765625,-38.0859375,-48.33984375,-57.6171875
-48.33984375,-47.8515625,-41.015625,-55.6640625
-53.7109375,-52.24609375,-39.0625,-57.12890625
-51.26953125,-50.78125,-39.55078125,-55.6640625
-41.9921875,-42.96875,-38.57421875,-46.38671875
-43.45703125,-41.015625,-41.015625,-41.9921875
-41.9921875,-46.38671875,-41.9921875,-41.9921875
-41.50390625,-44.921875,-42.48046875,-38.57421875
-46.38671875,-41.50390625,-40.52734375,-39.0625
-42.96875,-41.50390625,-42.96875,-37.59765625
-40.52734375,-41.9921875,-46.38671875,-37.59765625
-50.78125,-51.26953125,-47.36328125,-42.48046875
-51.7578125,-60.546875,-42.48046875,-40.52734375
-49.8046875,-59.5703125,-48.33984375,-41.015625
-52.734375,-51.26953125,-53.22265625,-51.7578125
-48.828125,-41.50390625,-45.8984375,-57.6171875
-47.8515625,-44.921875,-53.22265625,-65.4296875
-44.43359375,-49.31640625,-61.5234375,-67.3828125
-47.36328125,-48.828125,-60.546875,-68.359375
-52.734375,-44.921875,-48.33984375,-72.265625
-58.59375,-44.921875,-43.45703125,-70.80078125
-64.453125,-51.7578125,-47.36328125,-74.21875
-60.546875,-50.29296875,-44.43359375,-73.73046875
-56.15234375,-46.38671875,-41.9921875,-66.40625
-53.22265625,-44.43359375,-40.52734375,-59.08203125
-55.17578125,-44.43359375,-46.875,-63.4765625
-57.6171875,-43.9453125,-46.875,-57.6171875
-53.22265625,-47.36328125,-43.9453125,-42.96875
-47.36328125,-45.8984375,-42.48046875,-35.64453125
-37.59765625,-44.921875,-34.66796875,-30.76171875
-32.71484375,-45.8984375,-36.1328125,-32.71484375
-42.96875,-43.45703125,-47.36328125,-44.921875
-47.8515625,-49.8046875,-55.17578125,-50.29296875
-51.26953125,-58.59375,-51.7578125,-46.875
-57.6171875,-56.640625,-48.33984375,-51.7578125
-59.08203125,-50.78125,-52.24609375,-60.546875
-53.7109375,-51.26953125,-53.22265625,-57.12890625
-46.875,-49.8046875,-49.8046875,-46.38671875
-56.640625,-51.7578125,-41.50390625,-52.734375
-63.96484375,-56.15234375,-36.62109375,-60.546875
-63.4765625,-54.6875,-40.0390625,-61.5234375
-63.4765625,-54.19921875,-41.9921875,-63.96484375
-72.265625,-56.640625,-47.36328125,-67.87109375
-82.03125,-54.6875,-51.26953125,-72.75390625
-77.1484375,-52.734375,-46.38671875,-69.82421875
-68.84765625,-54.6875,-45.41015625,-63.96484375
-63.96484375,-52.24609375,-48.828125,-63.4765625
-62.98828125,-53.22265625,-57.12890625,-64.94140625
-60.546875,-55.17578125,-50.29296875,-55.17578125
-54.19921875,-54.6875,-35.15625,-46.875
-49.8046875,-55.17578125,-39.55078125,-49.31640625
-43.9453125,-50.29296875,-40.0390625,-43.45703125
-47.8515625,-51.7578125,-37.59765625,-40.0390625
-51.7578125,-59.08203125,-41.015625,-42.96875
-45.8984375,-59.08203125,-44.43359375,-45.8984375
-45.8984375,-48.828125,-48.828125,-51.26953125
-49.8046875,-45.41015625,-44.921875,-51.7578125
-50.29296875,-53.7109375,-45.8984375,-54.19921875
-51.26953125,-60.546875,-47.8515625,-56.640625
-54.19921875,-61.03515625,-41.9921875,-57.6171875
-53.7109375,-57.12890625,-42.96875,-64.453125
-58.59375,-53.22265625,-50.78125,-70.3125
-65.91796875,-52.24609375,-54.19921875,-70.80078125
-76.171875,-57.6171875,-54.19921875,-76.171875
-81.54296875,-59.08203125,-53.7109375,-78.125
-78.61328125,-53.7109375,-49.8046875,-75.1953125
-74.21875,-46.38671875,-45.8984375,-75.1953125
-80.56640625,-46.38671875,-48.828125,-82.03125
-86.42578125,-55.17578125,-50.29296875,-81.0546875
-77.63671875,-62.01171875,-46.875,-70.80078125
-68.84765625,-58.10546875,-52.24609375,-62.01171875
-71.2890625,-49.8046875,-63.96484375,-71.77734375
-77.1484375,-47.8515625,-60.546875,-83.0078125
-73.73046875,-54.6875,-60.05859375,-73.73046875
-62.98828125,-55.17578125,-59.08203125,-55.17578125
-54.19921875,-47.36328125,-43.45703125,-37.59765625
-52.24609375,-47.36328125,-41.50390625,-37.109375
-57.6171875,-52.24609375,-51.26953125,-41.50390625
-52.734375,-53.7109375,-53.7109375,-40.0390625
-45.41015625,-49.31640625,-50.29296875,-43.9453125
-34.1796875,-43.9453125,-46.875,-41.50390625
-19.53125,-38.57421875,-38.57421875,-32.2265625
-34.1796875,-47.8515625,-44.43359375,-43.9453125
-48.828125,-58.59375,-57.12890625,-60.546875
-41.9921875,-50.78125,-52.24609375,-54.19921875
-41.9921875,-54.19921875,-49.31640625,-52.24609375
-38.0859375,-52.24609375,-52.734375,-51.7578125
-33.69140625,-43.45703125,-54.19921875,-47.8515625
-44.43359375,-43.9453125,-52.734375,-56.15234375
-56.15234375,-49.8046875,-59.5703125,-65.4296875
-48.828125,-49.31640625,-63.96484375,-62.98828125
-41.50390625,-41.015625,-56.15234375,-49.8046875
-47.8515625,-39.55078125,-49.31640625,-50.78125
-58.59375,-52.24609375,-57.12890625,-57.12890625
-65.91796875,-63.4765625,-59.08203125,-53.7109375
-58.59375,-59.08203125,-51.26953125,-44.921875
-44.921875,-44.43359375,-46.875,-35.64453125
-46.875,-37.59765625,-53.22265625,-44.43359375
-55.17578125,-46.38671875,-53.7109375,-50.78125
-46.875,-52.734375,-45.41015625,-34.1796875
-36.1328125,-47.36328125,-43.45703125,-23.4375
-35.15625,-35.64453125,-44.43359375,-25.87890625
-41.9921875,-33.203125,-49.8046875,-39.55078125
-46.875,-31.25,-53.7109375,-49.31640625
-43.9453125,-35.15625,-46.875,-40.52734375
-41.50390625,-53.7109375,-49.31640625,-34.66796875
-33.69140625,-49.31640625,-42.48046875,-28.3203125
-35.15625,-46.38671875,-41.9921875,-34.66796875
-41.015625,-47.36328125,-46.38671875,-48.33984375
-47.8515625,-45.8984375,-44.921875,-55.17578125
-45.41015625,-46.38671875,-43.45703125,-51.7578125
-34.66796875,-42.48046875,-36.62109375,-46.38671875
-41.9921875,-41.015625,-41.015625,-52.24609375
-49.8046875,-46.38671875,-46.875,-62.01171875
-47.36328125,-50.78125,-43.9453125,-67.87109375
-48.828125,-48.828125,-41.9921875,-70.3125
-57.12890625,-52.24609375,-45.41015625,-71.2890625
-61.5234375,-51.7578125,-48.828125,-70.3125
-59.5703125,-48.828125,-41.9921875,-70.3125
-60.546875,-56.15234375,-43.9453125,-66.40625
-56.15234375,-54.19921875,-46.875,-50.78125
-54.6875,-46.875,-41.9921875,-46.875
-56.15234375,-43.45703125,-42.48046875,-52.24609375
-55.17578125,-42.96875,-38.57421875,-50.29296875
-59.5703125,-47.36328125,-39.0625,-51.7578125
-58.10546875,-54.6875,-51.26953125,-60.05859375
-46.875,-50.29296875,-53.22265625,-50.78125
-41.9921875,-39.55078125,-43.45703125,-40.52734375
-51.26953125,-41.9921875,-46.875,-53.7109375
-50.29296875,-51.7578125,-53.7109375,-54.19921875
-39.55078125,-49.8046875,-56.15234375,-41.50390625
-32.2265625,-41.50390625,-48.33984375,-35.64453125
-33.69140625,-43.45703125,-38.57421875,-36.62109375
-44.921875,-46.875,-33.203125,-40.0390625
-47.36328125,-46.875,-26.85546875,-38.0859375
-42.48046875,-53.7109375,-33.203125,-31.25
-40.0390625,-51.26953125,-39.55078125,-28.80859375
-41.015625,-39.0625,-42.96875,-41.50390625
-46.875,-41.50390625,-42.48046875,-55.6640625
-48.828125,-41.9921875,-38.0859375,-52.24609375
-45.41015625,-39.55078125,-44.43359375,-46.38671875
-51.26953125,-44.921875,-56.15234375,-53.7109375
-45.41015625,-34.1796875,-50.29296875,-52.24609375
-47.8515625,-35.64453125,-39.0625,-49.8046875
-60.05859375,-48.828125,-43.9453125,-54.6875
-59.08203125,-53.7109375,-52.24609375,-57.12890625
-55.17578125,-54.6875,-53.22265625,-55.6640625
-43.9453125,-43.9453125,-46.875,-48.828125
-39.55078125,-39.55078125,-45.8984375,-45.8984375
-39.55078125,-45.41015625,-43.45703125,-44.921875
-42.48046875,-49.8046875,-41.015625,-44.43359375
-42.96875,-48.33984375,-41.9921875,-41.9921875
-32.2265625,-40.52734375,-36.62109375,-35.64453125
-32.71484375,-42.48046875,-39.0625,-33.69140625
-42.96875,-45.41015625,-42.48046875,-40.52734375
-46.38671875,-44.921875,-41.9921875,-45.41015625
-41.9921875,-42.96875,-43.45703125,-41.50390625
-36.62109375,-37.59765625,-42.48046875,-33.69140625
-33.69140625,-37.59765625,-40.52734375,-32.2265625
-38.57421875,-43.45703125,-39.0625,-39.55078125
-41.50390625,-55.17578125,-40.0390625,-43.45703125
-33.203125,-55.17578125,-37.59765625,-38.0859375
-31.25,-45.8984375,-36.62109375,-43.45703125
-35.15625,-40.0390625,-42.48046875,-49.31640625
-34.1796875,-37.109375,-40.52734375,-41.50390625
-37.109375,-43.9453125,-32.2265625,-41.015625
-42.48046875,-51.26953125,-30.76171875,-41.50390625
-40.52734375,-50.29296875,-33.203125,-43.45703125
-38.57421875,-38.57421875,-34.66796875,-46.38671875
-36.62109375,-37.59765625,-34.66796875,-47.8515625
-37.59765625,-45.8984375,-35.64453125,-47.8515625
-41.9921875,-51.7578125,-41.50390625,-45.41015625
-39.0625,-43.45703125,-45.8984375,-39.55078125
-31.73828125,-38.0859375,-46.38671875,-36.1328125
-35.15625,-42.96875,-47.36328125,-37.109375
-40.0390625,-46.875,-42.96875,-37.109375
-39.55078125,-53.22265625,-39.55078125,-34.66796875
-40.52734375,-53.22265625,-38.0859375,-29.78515625
-41.50390625,-45.41015625,-38.57421875,-33.203125
-46.38671875,-45.41015625,-40.52734375,-40.52734375
-56.640625,-53.22265625,-41.015625,-44.921875
-60.546875,-56.640625,-42.48046875,-51.26953125
-54.6875,-55.6640625,-41.9921875,-52.24609375
-47.36328125,-50.78125,-38.0859375,-49.31640625
-51.7578125,-48.33984375,-40.0390625,-54.6875
-55.6640625,-47.8515625,-43.45703125,-60.546875
-54.19921875,-48.828125,-45.8984375,-57.6171875
-49.8046875,-46.38671875,-46.875,-50.78125
-41.50390625,-40.52734375,-40.0390625,-46.38671875
-39.0625,-42.48046875,-41.50390625,-45.8984375
-46.875,-48.828125,-54.6875,-53.22265625
-53.22265625,-55.6640625,-48.828125,-55.17578125
-45.41015625,-55.17578125,-41.50390625,-47.8515625
-37.109375,-46.38671875,-47.8515625,-46.875
-43.45703125,-44.921875,-46.38671875,-54.19921875
-43.45703125,-50.78125,-41.50390625,-52.24609375
-41.9921875,-49.31640625,-40.0390625,-49.8046875
-52.24609375,-48.828125,-47.8515625,-58.10546875
-56.640625,-54.6875,-48.33984375,-62.01171875
-51.7578125,-45.8984375,-44.43359375,-55.6640625
-56.640625,-45.41015625,-44.43359375,-56.640625
-71.2890625,-58.10546875,-45.41015625,-63.96484375
-70.80078125,-54.19921875,-43.9453125,-63.4765625
-59.08203125,-43.9453125,-43.9453125,-59.5703125
-49.8046875,-40.52734375,-52.24609375,-59.5703125
-51.26953125,-42.48046875,-58.59375,-60.546875
-60.05859375,-52.24609375,-59.08203125,-62.98828125
-62.5,-59.5703125,-53.7109375,-62.01171875
-49.31640625,-51.7578125,-44.43359375,-52.734375
-41.015625,-41.50390625,-41.015625,-48.828125
-51.7578125,-38.57421875,-46.875,-57.6171875
-60.05859375,-38.0859375,-43.45703125,-63.96484375
-65.4296875,-50.29296875,-41.9921875,-60.05859375
-57.12890625,-56.640625,-42.96875,-44.43359375
-48.828125,-42.96875,-43.45703125,-42.48046875
-53.7109375,-39.55078125,-47.36328125,-52.734375
-58.10546875,-46.38671875,-45.41015625,-53.7109375
-60.05859375,-52.24609375,-47.8515625,-50.29296875
-51.26953125,-53.22265625,-48.828125,-43.45703125
-40.52734375,-46.875,-42.96875,-35.15625
-45.8984375,-40.0390625,-43.9453125,-43.9453125
-50.29296875,-42.96875,-45.41015625,-55.6640625
-44.43359375,-47.36328125,-41.50390625,-50.78125
-45.8984375,-47.36328125,-41.9921875,-47.8515625
-44.43359375,-47.36328125,-44.43359375,-46.875
-33.203125,-45.41015625,-40.0390625,-42.96875
-30.76171875,-44.43359375,-35.64453125,-40.52734375
-37.109375,-49.31640625,-40.52734375,-41.015625
-40.0390625,-53.22265625,-47.8515625,-40.52734375
-38.57421875,-50.29296875,-43.45703125,-37.109375
-43.9453125,-46.875,-42.48046875,-39.55078125
-49.31640625,-47.8515625,-45.8984375,-41.9921875
-50.78125,-47.36328125,-47.36328125,-42.96875
-54.6875,-50.29296875,-45.8984375,-44.921875
-54.19921875,-50.29296875,-45.8984375,-44.43359375
-52.24609375,-41.9921875,-50.29296875,-43.9453125
-55.6640625,-48.33984375,-50.78125,-46.875
-49.8046875,-58.10546875,-50.29296875,-50.78125
-48.33984375,-59.08203125,-50.78125,-47.8515625
-44.921875,-51.26953125,-45.41015625,-40.0390625
-40.0390625,-42.96875,-42.48046875,-38.57421875
-49.8046875,-47.8515625,-47.36328125,-51.26953125
-56.640625,-52.24609375,-52.734375,-55.6640625
-51.26953125,-45.8984375,-54.6875,-46.875
-43.45703125,-38.0859375,-48.33984375,-41.015625
-42.48046875,-40.52734375,-39.55078125,-39.55078125
-46.38671875,-49.8046875,-41.015625,-39.55078125
-56.640625,-51.26953125,-43.9453125,-42.96875
-68.84765625,-53.7109375,-48.828125,-50.78125
-56.15234375,-57.6171875,-46.875,-42.96875
-41.50390625,-48.828125,-44.43359375,-35.64453125
-47.8515625,-49.31640625,-51.26953125,-44.43359375
-51.26953125,-53.7109375,-48.33984375,-47.8515625
-46.38671875,-49.8046875,-40.0390625,-40.0390625
-47.36328125,-43.9453125,-37.59765625,-37.109375
-45.8984375,-34.1796875,-34.66796875,-39.0625
-45.8984375,-33.203125,-40.0390625,-49.31640625
-57.6171875,-47.36328125,-45.8984375,-64.94140625
-57.6171875,-49.31640625,-47.8515625,-73.73046875
-49.8046875,-43.9453125,-52.24609375,-74.21875
-54.6875,-43.45703125,-45.41015625,-67.3828125
-60.05859375,-45.8984375,-40.0390625,-65.91796875
-60.05859375,-41.50390625,-48.828125,-72.265625
-64.453125,-38.57421875,-54.19921875,-70.80078125
-63.96484375,-45.41015625,-49.31640625,-60.546875
-62.5,-45.41015625,-40.52734375,-52.24609375
-59.08203125,-44.43359375,-37.59765625,-53.22265625
-60.546875,-48.33984375,-41.9921875,-58.59375
-65.91796875,-47.36328125,-43.9453125,-59.08203125
-67.87109375,-48.33984375,-44.43359375,-56.15234375
-65.4296875,-48.828125,-45.41015625,-57.6171875
-60.546875,-44.921875,-41.50390625,-59.5703125
-60.05859375,-50.78125,-41.50390625,-55.17578125
-52.24609375,-60.05859375,-43.45703125,-44.43359375
-51.7578125,-65.4296875,-40.52734375,-38.0859375
-44.43359375,-56.15234375,-38.57421875,-32.71484375
-32.71484375,-45.41015625,-43.45703125,-27.34375
-36.1328125,-40.52734375,-43.9453125,-29.296875
-38.0859375,-45.8984375,-41.50390625,-31.25
-38.57421875,-49.31640625,-44.43359375,-35.64453125
-38.0859375,-38.57421875,-40.0390625,-42.48046875
-38.57421875,-38.57421875,-36.62109375,-45.41015625
-37.59765625,-44.921875,-36.62109375,-39.0625
-38.57421875,-48.33984375,-37.109375,-39.0625
-40.52734375,-47.36328125,-38.57421875,-43.9453125
-42.48046875,-40.52734375,-46.875,-46.38671875
-44.43359375,-38.57421875,-52.734375,-52.24609375
-38.57421875,-35.64453125,-50.29296875,-51.26953125
-32.71484375,-34.66796875,-50.78125,-51.26953125
-35.15625,-40.0390625,-51.7578125,-48.828125
-37.59765625,-36.62109375,-48.828125,-41.50390625
-29.78515625,-31.25,-43.9453125,-42.48046875
-38.57421875,-35.15625,-41.015625,-48.828125
-48.33984375,-43.9453125,-46.38671875,-51.26953125
-41.50390625,-45.41015625,-50.78125,-47.36328125
-41.50390625,-41.9921875,-48.33984375,-39.55078125
-37.109375,-36.1328125,-43.9453125,-33.69140625
-37.109375,-39.55078125,-45.8984375,-37.109375
-41.9921875,-49.8046875,-46.875,-41.015625
-40.0390625,-54.19921875,-42.96875,-39.55078125
-32.71484375,-47.8515625,-41.015625,-36.1328125
-24.90234375,-42.96875,-40.52734375,-40.0390625
-29.296875,-43.9453125,-42.48046875,-47.8515625
-36.62109375,-49.31640625,-48.33984375,-59.08203125
-41.9921875,-50.29296875,-47.36328125,-66.89453125
-46.38671875,-50.78125,-43.45703125,-53.22265625
-45.8984375,-51.26953125,-45.8984375,-49.8046875
-53.7109375,-47.36328125,-44.921875,-53.7109375
-63.96484375,-50.29296875,-42.48046875,-48.33984375
-60.05859375,-61.03515625,-48.33984375,-43.9453125
-52.734375,-58.59375,-47.8515625,-38.57421875
-50.78125,-50.29296875,-43.45703125,-38.57421875
-51.7578125,-45.8984375,-45.8984375,-42.96875
-55.6640625,-40.52734375,-44.921875,-46.875
-55.17578125,-43.45703125,-49.8046875,-50.78125
-51.26953125,-48.33984375,-49.8046875,-50.78125
-47.36328125,-45.41015625,-43.45703125,-45.8984375
-52.24609375,-41.50390625,-47.36328125,-49.31640625
-50.29296875,-44.921875,-44.43359375,-53.7109375
-50.29296875,-45.8984375,-39.55078125,-50.29296875
-62.5,-46.875,-49.8046875,-50.78125
-62.5,-44.921875,-52.734375,-54.6875
-55.17578125,-34.66796875,-48.828125,-54.6875
-44.921875,-34.1796875,-45.8984375,-43.45703125
-48.828125,-47.36328125,-47.36328125,-43.9453125
-57.6171875,-51.7578125,-44.921875,-54.19921875
-54.19921875,-46.38671875,-45.8984375,-59.5703125
-48.33984375,-43.45703125,-48.828125,-59.08203125
-50.29296875,-53.22265625,-45.41015625,-56.15234375
-59.08203125,-62.98828125,-48.33984375,-65.91796875
-53.22265625,-57.6171875,-50.29296875,-67.87109375
-48.828125,-52.734375,-50.29296875,-61.03515625
-52.734375,-52.734375,-53.7109375,-63.96484375
-47.36328125,-55.17578125,-47.8515625,-60.05859375
-44.921875,-52.24609375,-43.9453125,-53.22265625
-49.31640625,-50.78125,-49.8046875,-56.640625
-45.41015625,-49.8046875,-48.33984375,-48.33984375
-34.1796875,-37.59765625,-44.921875,-42.48046875
-35.15625,-36.62109375,-45.8984375,-47.36328125
-49.31640625,-45.41015625,-44.921875,-48.828125
-58.10546875,-53.22265625,-44.43359375,-46.875
-48.33984375,-50.78125,-45.8984375,-34.1796875
-40.52734375,-41.9921875,-47.36328125,-26.85546875
-48.33984375,-42.96875,-47.8515625,-31.25
-48.828125,-46.875,-47.8515625,-39.55078125
-46.875,-51.7578125,-47.36328125,-43.9453125
-41.50390625,-48.33984375,-50.78125,-41.50390625
-30.2734375,-40.52734375,-52.734375,-32.71484375
-26.85546875,-37.109375,-49.31640625,-35.15625
-30.2734375,-44.921875,-50.29296875,-42.48046875
-31.73828125,-53.22265625,-50.29296875,-38.57421875
-28.80859375,-50.29296875,-51.7578125,-36.1328125
-28.3203125,-41.015625,-51.7578125,-41.9921875
-33.203125,-35.64453125,-43.45703125,-41.015625
-41.50390625,-41.50390625,-40.52734375,-41.50390625
-45.8984375,-44.43359375,-45.8984375,-49.31640625
-43.9453125,-43.9453125,-48.33984375,-45.41015625
-39.0625,-47.36328125,-43.45703125,-38.0859375
-42.48046875,-48.33984375,-37.109375,-41.50390625
-56.640625,-57.12890625,-42.48046875,-51.26953125
-57.6171875,-60.546875,-52.24609375,-58.10546875
-50.78125,-48.33984375,-53.22265625,-56.15234375
-47.8515625,-41.015625,-46.875,-50.29296875
-51.7578125,-43.9453125,-38.0859375,-47.8515625
-58.59375,-52.24609375,-36.62109375,-49.8046875
-66.40625,-57.12890625,-40.52734375,-51.7578125
-65.91796875,-58.59375,-41.50390625,-45.41015625
-52.734375,-51.26953125,-38.0859375,-38.57421875
-51.7578125,-48.828125,-41.50390625,-41.50390625
-58.10546875,-60.546875,-51.7578125,-47.8515625
-57.6171875,-73.2421875,-53.7109375,-54.19921875
-55.17578125,-72.265625,-48.828125,-48.33984375
-38.0859375,-62.5,-43.45703125,-37.59765625
-36.62109375,-56.15234375,-42.96875,-41.50390625
-54.6875,-56.640625,-49.8046875,-49.31640625
-51.26953125,-59.5703125,-45.8984375,-47.36328125
-34.1796875,-58.59375,-38.0859375,-36.1328125
-25.87890625,-45.41015625,-45.41015625,-33.203125
-30.76171875,-38.57421875,-50.78125,-38.0859375
-38.57421875,-37.109375,-46.875,-42.48046875
-46.875,-40.52734375,-45.41015625,-44.921875
-55.6640625,-59.08203125,-50.29296875,-45.8984375
-48.33984375,-62.98828125,-49.31640625,-42.48046875
-37.109375,-51.7578125,-46.38671875,-36.62109375
-40.0390625,-44.921875,-48.828125,-40.0390625
-45.8984375,-45.8984375,-52.734375,-44.921875
-44.43359375,-47.36328125,-52.734375,-49.31640625
-43.9453125,-46.38671875,-48.828125,-45.41015625
-46.38671875,-44.921875,-50.29296875,-42.96875
-50.78125,-43.9453125,-47.8515625,-49.8046875
-60.05859375,-51.26953125,-45.41015625,-51.7578125
-60.05859375,-50.29296875,-45.8984375,-46.875
-57.12890625,-50.78125,-48.33984375,-43.45703125
-59.5703125,-55.6640625,-48.828125,-44.921875
-54.19921875,-50.78125,-43.45703125,-50.78125
-51.26953125,-50.29296875,-40.0390625,-51.7578125
-57.6171875,-57.12890625,-38.0859375,-51.7578125
-54.19921875,-59.5703125,-33.203125,-48.828125
-44.43359375,-51.7578125,-33.69140625,-49.31640625
-44.43359375,-36.62109375,-44.43359375,-57.12890625
-48.33984375,-40.0390625,-48.828125,-57.12890625
-51.26953125,-51.26953125,-48.33984375,-59.08203125
-47.36328125,-53.7109375,-49.31640625,-53.7109375
-37.59765625,-41.50390625,-42.96875,-46.875
-46.38671875,-41.015625,-45.41015625,-54.19921875
-53.7109375,-51.7578125,-47.36328125,-58.59375
-48.828125,-50.78125,-46.38671875,-53.7109375
-48.828125,-51.26953125,-44.43359375,-45.41015625
-45.41015625,-41.015625,-41.50390625,-39.0625
-41.50390625,-40.0390625,-44.921875,-32.71484375
-42.96875,-53.22265625,-40.0390625,-31.25
-48.33984375,-54.19921875,-39.55078125,-42.48046875
-57.12890625,-53.22265625,-44.921875,-51.7578125
-46.38671875,-52.734375,-41.9921875,-41.50390625
-31.73828125,-47.36328125,-43.9453125,-33.69140625
-35.15625,-42.96875,-50.78125,-40.52734375
-45.8984375,-54.6875,-51.7578125,-47.36328125
-51.26953125,-67.3828125,-42.48046875,-41.9921875
-46.38671875,-55.6640625,-40.52734375,-40.0390625
-54.19921875,-47.8515625,-48.33984375,-51.26953125
-69.82421875,-58.59375,-52.734375,-59.5703125
-69.3359375,-65.91796875,-55.17578125,-58.10546875
-62.98828125,-65.4296875,-49.31640625,-54.6875
-62.5,-57.6171875,-46.875,-56.640625
-56.15234375,-50.29296875,-47.36328125,-48.33984375
-49.31640625,-49.8046875,-45.41015625,-49.8046875
-50.78125,-49.8046875,-47.36328125,-55.17578125
-55.17578125,-54.6875,-48.33984375,-50.78125
-53.7109375,-58.10546875,-45.41015625,-47.8515625
-45.41015625,-51.26953125,-44.921875,-44.43359375
-41.015625,-48.828125,-48.33984375,-51.7578125
-55.6640625,-62.98828125,-51.7578125,-58.10546875
-57.6171875,-65.91796875,-50.29296875,-50.29296875
-41.9921875,-53.22265625,-43.45703125,-37.59765625
-44.43359375,-47.8515625,-45.41015625,-41.015625
-45.41015625,-46.875,-46.875,-48.33984375
-45.41015625,-48.33984375,-45.41015625,-52.734375
-53.7109375,-54.6875,-54.19921875,-59.5703125
-54.6875,-56.15234375,-52.734375,-52.24609375
-45.8984375,-43.9453125,-41.50390625,-43.45703125
-34.1796875,-38.57421875,-40.0390625,-37.59765625
-37.59765625,-48.33984375,-40.52734375,-37.109375
-55.17578125,-56.640625,-41.015625,-50.29296875
-63.4765625,-62.01171875,-50.29296875,-54.6875
-49.31640625,-51.26953125,-48.828125,-42.48046875
-42.48046875,-44.43359375,-42.48046875,-36.1328125
-53.22265625,-50.29296875,-49.8046875,-47.36328125
-57.12890625,-50.78125,-53.22265625,-54.6875
-54.19921875,-50.78125,-50.78125,-46.875
-53.22265625,-47.36328125,-46.875,-41.015625
-54.19921875,-47.36328125,-48.33984375,-46.875
-51.26953125,-40.52734375,-45.8984375,-51.26953125
-48.33984375,-42.48046875,-43.45703125,-51.26953125
-47.8515625,-50.78125,-46.38671875,-47.36328125
-41.9921875,-40.52734375,-41.50390625,-41.015625
-35.64453125,-33.69140625,-42.48046875,-44.921875
-35.15625,-38.57421875,-44.43359375,-44.921875
-43.9453125,-44.43359375,-37.59765625,-41.9921875
-56.640625,-55.6640625,-40.0390625,-50.78125
-50.29296875,-49.8046875,-42.96875,-49.31640625
-39.55078125,-38.0859375,-42.96875,-46.38671875
-46.38671875,-43.45703125,-43.45703125,-53.22265625
-56.15234375,-51.7578125,-43.45703125,-60.05859375
-61.5234375,-54.6875,-46.38671875,-61.03515625
-58.59375,-48.33984375,-43.9453125,-55.6640625
-52.734375,-45.41015625,-46.38671875,-54.6875
-60.05859375,-51.7578125,-59.5703125,-62.01171875
-59.08203125,-53.7109375,-61.5234375,-60.546875
-53.7109375,-56.15234375,-55.17578125,-57.6171875
-50.29296875,-55.6640625,-53.7109375,-58.59375
-42.96875,-46.875,-54.19921875,-52.24609375
-41.015625,-39.55078125,-49.8046875,-46.38671875
-48.828125,-40.52734375,-49.8046875,-49.8046875
-54.6875,-47.8515625,-51.7578125,-54.6875
-54.19921875,-50.29296875,-48.33984375,-53.7109375
-45.8984375,-40.52734375,-46.875,-44.921875
-38.0859375,-37.109375,-43.9453125,-34.1796875
-53.22265625,-52.734375,-46.38671875,-43.9453125
-64.453125,-59.08203125,-49.8046875,-54.6875
-54.19921875,-52.24609375,-45.8984375,-44.43359375
-42.48046875,-41.9921875,-39.0625,-32.2265625
-41.015625,-36.1328125,-39.55078125,-34.1796875
-50.29296875,-40.52734375,-49.8046875,-49.8046875
-55.6640625,-47.8515625,-54.19921875,-56.15234375
-57.6171875,-56.15234375,-53.22265625,-48.828125
-52.24609375,-52.734375,-49.31640625,-52.734375
-45.8984375,-47.8515625,-47.36328125,-55.6640625
-47.8515625,-42.48046875,-44.43359375,-54.6875
-51.26953125,-40.0390625,-41.9921875,-54.6875
-53.22265625,-51.7578125,-47.8515625,-52.24609375
-53.7109375,-49.8046875,-50.78125,-52.734375
-51.26953125,-38.57421875,-48.33984375,-50.78125
-47.8515625,-38.57421875,-49.8046875,-53.22265625
-41.9921875,-41.015625,-46.875,-51.7578125
-40.0390625,-41.9921875,-41.015625,-42.48046875
-41.50390625,-39.0625,-31.25,-32.2265625
-42.48046875,-35.64453125,-29.78515625,-35.15625
-44.921875,-32.71484375,-42.48046875,-44.921875
-45.8984375,-39.55078125,-42.48046875,-42.48046875
-53.7109375,-51.7578125,-38.0859375,-47.8515625
-56.640625,-50.29296875,-44.43359375,-53.22265625
-46.38671875,-45.41015625,-40.52734375,-43.9453125
-43.45703125,-44.921875,-32.2265625,-40.0390625
-48.828125,-49.31640625,-30.76171875,-41.9921875
-58.10546875,-59.08203125,-39.0625,-49.31640625
-55.6640625,-55.17578125,-44.921875,-45.8984375
-42.96875,-41.015625,-43.45703125,-39.0625
-48.828125,-41.50390625,-49.31640625,-50.29296875
-59.08203125,-44.43359375,-48.33984375,-58.59375
-67.87109375,-41.9921875,-50.78125,-57.12890625
-68.359375,-39.0625,-53.22265625,-58.10546875
-55.6640625,-32.71484375,-51.7578125,-56.640625
-52.734375,-36.1328125,-48.828125,-55.6640625
-55.17578125,-44.921875,-45.8984375,-53.7109375
-54.19921875,-41.9921875,-48.828125,-56.640625
-49.8046875,-41.015625,-53.22265625,-57.6171875
-39.55078125,-34.1796875,-51.7578125,-51.7578125
-34.1796875,-26.3671875,-46.38671875,-48.828125
-39.55078125,-34.66796875,-43.9453125,-51.7578125
-50.29296875,-48.828125,-45.41015625,-55.6640625
-55.17578125,-56.15234375,-45.41015625,-50.78125
-42.96875,-51.26953125,-42.96875,-40.0390625
-38.57421875,-43.9453125,-40.52734375,-33.203125
-47.8515625,-42.96875,-41.50390625,-39.0625
-54.19921875,-49.31640625,-43.45703125,-43.9453125
-54.19921875,-54.6875,-44.921875,-41.015625
-45.8984375,-48.33984375,-49.8046875,-36.62109375
-46.875,-43.45703125,-49.31640625,-41.9921875
-63.96484375,-42.96875,-46.875,-56.640625
-74.21875,-45.41015625,-46.38671875,-62.5
-64.453125,-46.38671875,-45.8984375,-60.05859375
-46.38671875,-37.59765625,-47.36328125,-53.7109375
-35.64453125,-31.73828125,-43.9453125,-44.43359375
-45.41015625,-41.50390625,-35.64453125,-47.8515625
-63.96484375,-52.24609375,-45.41015625,-58.10546875
-60.546875,-55.6640625,-54.19921875,-55.6640625
-41.50390625,-52.24609375,-47.36328125,-43.9453125
-31.25,-43.9453125,-42.48046875,-41.015625
-30.76171875,-42.96875,-49.31640625,-49.31640625
-32.71484375,-54.6875,-56.15234375,-54.19921875
-32.2265625,-57.6171875,-52.734375,-48.33984375
-27.34375,-51.26953125,-47.36328125,-40.0390625
-29.78515625,-46.38671875,-45.41015625,-39.55078125
-38.57421875,-50.29296875,-49.31640625,-46.875
-45.8984375,-55.6640625,-51.7578125,-50.78125
-50.78125,-60.05859375,-48.33984375,-47.36328125
-49.31640625,-58.59375,-47.36328125,-41.50390625
-48.33984375,-46.875,-44.921875,-40.52734375
-50.29296875,-41.9921875,-44.43359375,-43.9453125
-54.6875,-50.29296875,-45.41015625,-48.33984375
-58.59375,-60.546875,-49.31640625,-52.734375
-55.6640625,-60.546875,-50.78125,-50.29296875
-43.9453125,-54.6875,-45.41015625,-48.828125
-43.45703125,-50.78125,-48.828125,-50.29296875
-42.48046875,-47.8515625,-52.24609375,-43.9453125
-40.52734375,-46.875,-46.38671875,-43.9453125
-41.50390625,-45.8984375,-41.50390625,-41.015625
-33.69140625,-38.57421875,-36.62109375,-29.296875
-38.57421875,-41.50390625,-41.50390625,-37.59765625
-41.9921875,-39.0625,-41.015625,-45.8984375
-38.57421875,-36.1328125,-39.55078125,-40.52734375
-38.57421875,-46.38671875,-47.36328125,-41.50390625
-44.921875,-46.875,-53.22265625,-47.8515625
-48.828125,-46.38671875,-46.38671875,-51.7578125
-55.6640625,-48.828125,-45.41015625,-56.640625
-65.91796875,-49.8046875,-50.29296875,-62.01171875
-58.59375,-52.734375,-49.8046875,-54.6875
-35.64453125,-42.96875,-47.36328125,-47.8515625
-31.25,-34.1796875,-45.8984375,-56.640625
-46.38671875,-40.52734375,-43.45703125,-63.4765625
-60.546875,-55.6640625,-41.50390625,-61.03515625
-56.15234375,-57.12890625,-40.0390625,-57.6171875
-45.8984375,-41.9921875,-43.45703125,-57.12890625
-48.33984375,-38.57421875,-51.26953125,-59.5703125
-44.43359375,-42.48046875,-41.9921875,-55.17578125
-49.8046875,-53.22265625,-32.2265625,-54.19921875
-58.59375,-63.96484375,-40.0390625,-55.6640625
-51.7578125,-62.5,-47.36328125,-50.29296875
-47.36328125,-54.6875,-48.33984375,-43.45703125
-55.6640625,-49.8046875,-41.9921875,-48.33984375
-63.96484375,-52.734375,-42.48046875,-56.640625
-65.4296875,-56.15234375,-46.875,-59.5703125
-61.5234375,-56.640625,-42.48046875,-62.01171875
-54.6875,-43.9453125,-37.109375,-58.59375
-61.03515625,-41.9921875,-40.0390625,-61.03515625
-72.75390625,-57.6171875,-51.26953125,-70.3125
-71.2890625,-60.546875,-54.19921875,-69.82421875
-56.15234375,-50.29296875,-45.8984375,-58.59375
-43.9453125,-38.57421875,-42.48046875,-47.8515625
-40.52734375,-33.203125,-46.875,-45.41015625
-39.55078125,-36.1328125,-55.6640625,-49.31640625
-40.0390625,-40.0390625,-52.24609375,-46.875
-41.50390625,-40.52734375,-47.8515625,-48.33984375
-39.55078125,-42.48046875,-54.19921875,-53.7109375
-37.109375,-41.50390625,-55.6640625,-51.7578125
-43.45703125,-34.1796875,-49.31640625,-48.828125
-53.7109375,-45.8984375,-57.12890625,-61.5234375
-60.05859375,-60.546875,-62.5,-65.91796875
-52.734375,-52.24609375,-47.36328125,-46.38671875
-50.78125,-47.36328125,-51.26953125,-50.78125
-53.7109375,-47.36328125,-52.734375,-59.08203125
-56.640625,-52.734375,-49.8046875,-55.17578125
-56.640625,-54.19921875,-53.22265625,-52.24609375
-47.36328125,-49.31640625,-47.36328125,-44.43359375
-45.41015625,-46.875,-42.96875,-41.9921875
-51.7578125,-48.828125,-43.9453125,-46.875
-54.19921875,-50.78125,-40.0390625,-47.36328125
-56.640625,-45.41015625,-41.50390625,-50.29296875
-53.7109375,-38.0859375,-42.96875,-52.734375
-52.734375,-47.36328125,-41.9921875,-51.26953125
-56.15234375,-56.640625,-47.8515625,-58.10546875
-54.19921875,-59.08203125,-56.640625,-60.05859375
-53.7109375,-62.5,-60.546875,-56.640625
-49.31640625,-54.19921875,-54.19921875,-51.7578125
-38.0859375,-45.8984375,-47.36328125,-43.9453125
-39.55078125,-49.31640625,-52.24609375,-46.38671875
-48.828125,-56.15234375,-63.4765625,-53.7109375
-43.9453125,-57.6171875,-60.546875,-48.33984375
-31.73828125,-49.8046875,-54.19921875,-37.59765625
-33.69140625,-44.921875,-56.640625,-39.0625
-42.96875,-48.33984375,-56.15234375,-49.8046875
-44.921875,-49.31640625,-50.78125,-46.38671875
-45.8984375,-49.8046875,-47.8515625,-38.57421875
-49.31640625,-50.29296875,-49.8046875,-42.48046875
-46.875,-45.41015625,-48.828125,-47.36328125
-44.43359375,-38.57421875,-45.8984375,-46.38671875
-57.12890625,-46.875,-48.33984375,-53.22265625
-64.453125,-55.6640625,-44.921875,-52.734375
-59.08203125,-50.29296875,-41.015625,-44.921875
-55.17578125,-46.38671875,-40.0390625,-44.921875
-63.4765625,-48.828125,-40.0390625,-51.7578125
-70.3125,-49.31640625,-44.921875,-56.640625
-68.84765625,-53.7109375,-49.8046875,-49.31640625
-61.5234375,-56.640625,-44.921875,-38.57421875
-58.10546875,-50.29296875,-37.59765625,-40.0390625
-58.59375,-52.24609375,-46.38671875,-56.15234375
-56.640625,-57.12890625,-50.78125,-59.5703125
-50.29296875,-47.36328125,-46.38671875,-51.26953125
-40.52734375,-42.48046875,-47.36328125,-48.828125
-38.0859375,-43.45703125,-47.8515625,-46.38671875
-41.50390625,-42.96875,-47.8515625,-45.8984375
-48.33984375,-45.41015625,-50.78125,-53.7109375
-56.15234375,-48.828125,-48.33984375,-56.640625
-53.22265625,-46.38671875,-42.48046875,-45.8984375
-41.50390625,-42.48046875,-40.52734375,-38.0859375
-35.64453125,-43.45703125,-39.0625,-33.203125
-38.57421875,-45.41015625,-36.1328125,-31.73828125
-42.48046875,-51.26953125,-42.96875,-38.0859375
-35.15625,-45.41015625,-41.50390625,-32.71484375
-34.1796875,-39.55078125,-40.52734375,-32.71484375
-33.69140625,-42.96875,-44.921875,-35.15625
-41.9921875,-45.41015625,-42.48046875,-44.43359375
-52.734375,-46.38671875,-44.43359375,-54.6875
-56.640625,-47.36328125,-47.8515625,-47.8515625
-59.08203125,-45.41015625,-41.9921875,-47.8515625
-50.78125,-40.0390625,-32.2265625,-46.38671875
-51.7578125,-41.9921875,-41.015625,-48.33984375
-62.01171875,-45.8984375,-58.10546875,-60.546875
-58.10546875,-45.8984375,-56.15234375,-54.6875
-47.8515625,-45.41015625,-46.38671875,-39.0625
-52.734375,-41.015625,-47.8515625,-46.875
-59.08203125,-43.45703125,-54.6875,-61.03515625
-51.26953125,-46.38671875,-58.10546875,-56.15234375
-51.7578125,-47.36328125,-57.12890625,-58.10546875
-52.734375,-44.921875,-49.31640625,-54.6875
-47.8515625,-39.55078125,-44.43359375,-50.29296875
-50.29296875,-40.0390625,-49.8046875,-56.15234375
-56.640625,-45.41015625,-55.17578125,-62.5
-56.640625,-47.8515625,-52.24609375,-61.5234375
-48.828125,-47.36328125,-51.26953125,-55.6640625
-40.0390625,-44.921875,-49.31640625,-55.6640625
-38.57421875,-45.41015625,-40.52734375,-55.6640625
-40.0390625,-49.8046875,-45.8984375,-47.36328125
-50.78125,-53.7109375,-58.59375,-50.78125
-59.08203125,-52.24609375,-54.19921875,-57.6171875
-57.12890625,-48.33984375,-44.921875,-52.24609375
-62.98828125,-49.31640625,-44.921875,-52.734375
-67.87109375,-56.15234375,-48.33984375,-61.5234375
-64.453125,-60.05859375,-51.26953125,-55.6640625
-58.59375,-49.31640625,-45.41015625,-44.43359375
-51.7578125,-42.48046875,-42.96875,-45.41015625
-51.26953125,-50.29296875,-43.45703125,-45.41015625
-52.734375,-49.8046875,-41.50390625,-45.41015625
-49.31640625,-51.7578125,-46.875,-49.8046875
-43.9453125,-51.26953125,-51.7578125,-49.31640625
-36.62109375,-41.9921875,-51.26953125,-44.43359375
-34.1796875,-34.66796875,-47.8515625,-43.45703125
-40.52734375,-35.15625,-47.8515625,-49.31640625
-48.33984375,-44.921875,-49.8046875,-48.828125
-50.29296875,-50.29296875,-47.8515625,-43.45703125
-50.78125,-48.33984375,-48.828125,-42.96875
-50.78125,-35.15625,-46.38671875,-41.9921875
-50.29296875,-35.64453125,-48.33984375,-41.50390625
-57.6171875,-47.8515625,-56.640625,-43.9453125
-58.10546875,-44.921875,-51.7578125,-38.57421875
-48.33984375,-41.50390625,-40.0390625,-30.2734375
-41.50390625,-40.0390625,-36.1328125,-30.2734375
-46.875,-38.0859375,-42.48046875,-40.52734375
-51.26953125,-40.52734375,-49.8046875,-44.43359375
-44.43359375,-45.8984375,-46.38671875,-37.59765625
-42.48046875,-49.8046875,-42.96875,-44.921875
-41.015625,-48.33984375,-45.41015625,-45.41015625
-33.69140625,-45.41015625,-40.0390625,-38.57421875
-24.90234375,-40.52734375,-42.96875,-41.50390625
-34.1796875,-46.38671875,-53.7109375,-44.43359375
-38.0859375,-51.7578125,-48.828125,-41.015625
-31.73828125,-40.0390625,-41.015625,-36.1328125
-34.66796875,-36.1328125,-48.33984375,-43.9453125
-39.0625,-44.43359375,-52.24609375,-50.78125
-40.52734375,-43.45703125,-49.31640625,-52.24609375
-39.55078125,-41.50390625,-49.31640625,-52.24609375
-33.203125,-41.015625,-47.8515625,-49.31640625
-35.64453125,-40.52734375,-47.8515625,-50.29296875
-47.8515625,-46.875,-52.24609375,-55.6640625
-50.29296875,-51.7578125,-51.26953125,-53.7109375
-47.8515625,-48.33984375,-48.33984375,-45.8984375
-41.015625,-40.52734375,-48.828125,-46.875
-37.109375,-36.62109375,-53.7109375,-53.22265625
-40.0390625,-43.45703125,-52.24609375,-55.6640625
-43.9453125,-51.7578125,-46.875,-53.7109375
-43.45703125,-47.8515625,-43.45703125,-50.29296875
-38.0859375,-42.96875,-36.62109375,-44.43359375
-38.0859375,-41.015625,-36.1328125,-38.0859375
-43.45703125,-37.59765625,-44.43359375,-39.0625
-48.33984375,-34.66796875,-44.921875,-40.52734375
-45.41015625,-36.62109375,-43.45703125,-37.109375
-40.0390625,-40.0390625,-44.921875,-33.69140625
-41.9921875,-36.1328125,-42.48046875,-32.71484375
-47.8515625,-32.2265625,-43.45703125,-40.0390625
-49.31640625,-40.0390625,-48.828125,-42.96875
-44.921875,-45.41015625,-50.29296875,-41.015625
-39.0625,-40.0390625,-47.36328125,-39.55078125
-38.0859375,-35.15625,-43.9453125,-43.45703125
-40.0390625,-35.15625,-41.50390625,-49.8046875
-49.31640625,-50.29296875,-46.38671875,-57.12890625
-54.19921875,-53.7109375,-47.8515625,-58.59375
-52.24609375,-42.96875,-44.43359375,-54.6875
-50.78125,-43.9453125,-42.96875,-50.78125
-47.36328125,-45.41015625,-46.38671875,-42.96875
-55.6640625,-42.96875,-51.7578125,-45.8984375
-67.87109375,-52.734375,-50.78125,-56.640625
-59.08203125,-59.08203125,-43.45703125,-51.7578125
-48.828125,-54.6875,-41.9921875,-48.33984375
-54.19921875,-60.05859375,-44.43359375,-55.6640625
-51.26953125,-56.640625,-46.875,-55.17578125
-45.8984375,-49.31640625,-56.15234375,-53.22265625
-49.8046875,-46.38671875,-61.5234375,-57.6171875
-54.19921875,-50.29296875,-54.6875,-61.03515625
-60.05859375,-58.59375,-50.29296875,-60.546875
-59.5703125,-58.59375,-53.7109375,-61.5234375
-55.6640625,-61.03515625,-62.5,-61.03515625
-45.8984375,-54.19921875,-64.453125,-60.05859375
-41.015625,-43.9453125,-60.05859375,-54.6875
-43.45703125,-49.8046875,-56.15234375,-48.828125
-53.22265625,-55.6640625,-57.6171875,-59.5703125
-63.96484375,-57.12890625,-59.5703125,-69.82421875
-49.31640625,-47.36328125,-52.734375,-57.12890625
-37.59765625,-42.96875,-48.828125,-46.875
-45.8984375,-49.31640625,-46.875,-49.31640625
-55.17578125,-53.22265625,-46.38671875,-46.38671875
-64.453125,-59.08203125,-48.33984375,-46.875
-64.453125,-55.17578125,-51.26953125,-41.015625
-51.26953125,-45.41015625,-51.7578125,-32.71484375
-50.78125,-39.0625,-47.36328125,-40.0390625
-58.10546875,-42.96875,-45.8984375,-44.43359375
-57.12890625,-52.734375,-55.6640625,-41.9921875
-58.59375,-55.17578125,-58.10546875,-43.9453125
-49.31640625,-42.48046875,-41.015625,-40.0390625
-40.0390625,-35.64453125,-33.69140625,-38.0859375
-50.78125,-41.015625,-43.9453125,-51.26953125
-53.22265625,-42.96875,-50.29296875,-59.5703125
-50.29296875,-44.43359375,-49.8046875,-60.546875
-44.921875,-37.59765625,-48.828125,-56.640625
-38.0859375,-34.66796875,-49.8046875,-52.734375
-46.38671875,-40.52734375,-57.12890625,-62.5
-48.828125,-40.52734375,-59.5703125,-60.05859375
-43.9453125,-43.45703125,-53.7109375,-47.36328125
-50.29296875,-53.22265625,-50.29296875,-47.36328125
-52.24609375,-51.26953125,-47.36328125,-41.9921875
-53.7109375,-45.41015625,-48.33984375,-37.59765625
-57.12890625,-45.41015625,-57.6171875,-43.45703125
-56.640625,-42.96875,-53.7109375,-42.48046875
-58.10546875,-39.0625,-46.875,-42.48046875
-53.7109375,-37.59765625,-47.8515625,-47.36328125
-56.640625,-41.9921875,-51.7578125,-52.24609375
-62.01171875,-46.38671875,-58.10546875,-56.15234375
-54.19921875,-43.45703125,-55.17578125,-53.7109375
-41.015625,-34.66796875,-41.015625,-46.875
-41.015625,-34.1796875,-40.0390625,-45.41015625
-44.921875,-41.9921875,-48.33984375,-48.828125
-45.8984375,-44.921875,-49.31640625,-54.6875
-44.921875,-50.29296875,-49.8046875,-52.734375
-42.48046875,-51.26953125,-51.7578125,-49.8046875
-48.828125,-47.36328125,-52.24609375,-56.640625
-50.78125,-41.50390625,-47.8515625,-57.6171875
-46.38671875,-40.0390625,-53.22265625,-57.6171875
-40.0390625,-43.9453125,-57.6171875,-50.29296875
-28.80859375,-39.0625,-44.921875,-33.69140625
-31.73828125,-35.15625,-38.57421875,-28.80859375
-38.0859375,-40.0390625,-38.57421875,-27.83203125
-44.43359375,-52.734375,-42.48046875,-25.87890625
-53.22265625,-57.6171875,-45.8984375,-31.25
-49.31640625,-47.8515625,-43.9453125,-33.203125
-39.0625,-43.9453125,-42.96875,-26.3671875
-45.8984375,-46.38671875,-42.96875,-25.87890625
-55.17578125,-46.875,-43.45703125,-32.71484375
-47.8515625,-47.8515625,-43.45703125,-35.64453125
-44.921875,-42.48046875,-42.96875,-35.15625
-46.875,-37.109375,-42.48046875,-40.52734375
-51.7578125,-38.0859375,-38.0859375,-45.41015625
-61.03515625,-41.015625,-39.55078125,-52.24609375
-65.91796875,-42.96875,-45.8984375,-54.6875
-53.7109375,-37.59765625,-44.43359375,-49.8046875
-41.9921875,-32.2265625,-48.33984375,-50.29296875
-45.8984375,-34.66796875,-49.31640625,-54.19921875
-54.19921875,-50.29296875,-51.26953125,-60.05859375
-54.19921875,-59.5703125,-51.7578125,-60.05859375
-44.921875,-49.31640625,-41.50390625,-52.734375
-41.50390625,-42.96875,-40.0390625,-55.17578125
-39.0625,-42.48046875,-46.38671875,-59.5703125
-40.0390625,-46.38671875,-52.24609375,-55.6640625
-45.8984375,-52.24609375,-51.26953125,-53.7109375
-45.8984375,-47.8515625,-46.875,-43.9453125
-39.55078125,-33.203125,-48.828125,-40.0390625
-38.0859375,-32.71484375,-53.22265625,-49.8046875
-41.9921875,-41.015625,-51.7578125,-54.19921875
-47.36328125,-47.8515625,-51.26953125,-55.17578125
-47.36328125,-49.31640625,-50.78125,-51.7578125
-37.109375,-46.38671875,-45.41015625,-45.41015625
-27.34375,-40.0390625,-42.48046875,-39.0625
-31.73828125,-39.0625,-46.875,-41.50390625
-36.62109375,-48.828125,-50.29296875,-45.41015625
-33.69140625,-52.734375,-50.29296875,-43.45703125
-21.484375,-42.48046875,-41.9921875,-32.71484375
-23.92578125,-44.921875,-35.64453125,-30.76171875
-38.57421875,-49.31640625,-43.45703125,-45.41015625
-44.43359375,-47.36328125,-51.7578125,-54.19921875
-45.8984375,-50.78125,-52.734375,-54.19921875
-45.8984375,-50.29296875,-52.24609375,-52.24609375
-43.9453125,-43.45703125,-49.31640625,-50.29296875
-42.48046875,-38.57421875,-44.43359375,-44.921875
-42.96875,-41.015625,-45.41015625,-44.921875
-44.43359375,-44.921875,-51.26953125,-45.41015625
-47.36328125,-44.921875,-51.26953125,-41.9921875
-48.33984375,-39.55078125,-42.48046875,-41.015625
-52.24609375,-37.109375,-38.0859375,-41.015625
-55.17578125,-40.0390625,-45.41015625,-50.29296875
-61.03515625,-38.0859375,-51.7578125,-61.5234375
-62.98828125,-37.109375,-51.26953125,-54.19921875
-51.26953125,-39.0625,-52.24609375,-43.9453125
-53.22265625,-42.96875,-49.8046875,-46.875
-61.03515625,-49.31640625,-45.41015625,-54.19921875
-66.40625,-58.10546875,-44.921875,-56.15234375
-68.359375,-64.94140625,-46.38671875,-53.7109375
-55.17578125,-58.10546875,-46.38671875,-47.8515625
-46.875,-47.36328125,-44.43359375,-40.0390625
-51.7578125,-52.24609375,-45.8984375,-42.96875
-48.33984375,-62.01171875,-42.48046875,-39.0625
-35.15625,-58.59375,-46.38671875,-32.71484375
-35.15625,-43.45703125,-50.78125,-44.43359375
-47.36328125,-37.109375,-46.875,-53.7109375
-50.78125,-47.36328125,-42.96875,-50.78125
-52.24609375,-54.19921875,-41.50390625,-45.41015625
-55.17578125,-54.6875,-44.921875,-44.43359375
-48.33984375,-50.78125,-46.38671875,-43.9453125
-44.43359375,-45.41015625,-46.875,-45.8984375
-47.36328125,-43.9453125,-47.8515625,-53.7109375
-52.24609375,-47.36328125,-46.38671875,-56.640625
-53.22265625,-52.734375,-41.015625,-50.78125
-50.78125,-48.33984375,-39.55078125,-47.36328125
-51.26953125,-42.48046875,-47.8515625,-55.6640625
-59.08203125,-40.0390625,-50.29296875,-62.5
-65.4296875,-40.52734375,-44.921875,-63.4765625
-62.98828125,-50.78125,-51.7578125,-63.4765625
-52.734375,-44.921875,-56.15234375,-63.4765625
-38.57421875,-30.76171875,-42.96875,-55.17578125
-38.57421875,-32.2265625,-36.1328125,-54.6875
-45.8984375,-41.015625,-47.8515625,-62.98828125
-42.96875,-42.48046875,-49.8046875,-57.6171875
-37.109375,-39.0625,-41.9921875,-47.36328125
-36.1328125,-37.59765625,-39.55078125,-40.0390625
-39.55078125,-40.0390625,-41.50390625,-42.48046875
-42.96875,-43.9453125,-45.8984375,-46.38671875
-45.8984375,-45.41015625,-51.7578125,-49.8046875
-51.26953125,-49.31640625,-56.15234375,-54.6875
-50.78125,-41.9921875,-53.22265625,-52.24609375
-51.26953125,-34.1796875,-45.41015625,-52.734375
-55.17578125,-40.52734375,-46.38671875,-60.05859375
-55.6640625,-48.33984375,-48.828125,-61.5234375
-45.8984375,-46.38671875,-45.41015625,-49.31640625
-44.43359375,-37.109375,-40.0390625,-44.921875
-55.17578125,-39.0625,-39.55078125,-54.6875
-60.05859375,-43.9453125,-44.921875,-59.08203125
-60.05859375,-52.734375,-51.26953125,-55.6640625
-52.734375,-55.6640625,-47.8515625,-43.45703125
-41.015625,-43.9453125,-43.9453125,-34.1796875
-43.9453125,-39.55078125,-47.36328125,-43.45703125
-55.6640625,-53.22265625,-49.31640625,-59.08203125
-54.19921875,-58.59375,-50.29296875,-57.12890625
-45.41015625,-54.6875,-53.22265625,-45.41015625
-43.9453125,-52.24609375,-56.15234375,-43.45703125
-45.8984375,-47.8515625,-53.7109375,-48.33984375
-48.33984375,-51.26953125,-53.7109375,-53.7109375
-46.875,-55.17578125,-52.24609375,-50.78125
-46.875,-54.19921875,-48.33984375,-47.8515625
-45.8984375,-47.36328125,-55.17578125,-50.29296875
-39.0625,-41.015625,-57.12890625,-48.828125
-38.0859375,-39.55078125,-47.36328125,-44.921875
-43.9453125,-48.33984375,-45.8984375,-46.38671875
-58.10546875,-59.5703125,-46.38671875,-58.10546875
-58.59375,-52.734375,-49.8046875,-54.19921875
-46.875,-42.48046875,-53.22265625,-39.0625
-46.38671875,-40.0390625,-49.8046875,-38.57421875
-45.41015625,-41.015625,-50.29296875,-40.52734375
-44.921875,-44.43359375,-50.78125,-40.52734375
-38.0859375,-43.45703125,-46.38671875,-42.48046875
-27.83203125,-37.109375,-42.96875,-39.0625
-38.57421875,-36.62109375,-48.828125,-43.9453125
-49.31640625,-47.36328125,-52.734375,-52.734375
-41.50390625,-43.9453125,-51.26953125,-44.43359375
-39.55078125,-40.0390625,-52.734375,-41.9921875
-39.55078125,-43.45703125,-47.8515625,-43.9453125
-25.87890625,-32.2265625,-50.29296875,-36.1328125
-21.484375,-38.57421875,-60.546875,-34.1796875
-27.34375,-54.19921875,-49.31640625,-26.85546875
-39.0625,-52.24609375,-45.8984375,-26.85546875
-45.41015625,-49.31640625,-52.734375,-37.109375
-47.8515625,-54.6875,-51.7578125,-38.57421875
-53.7109375,-56.15234375,-49.31640625,-34.66796875
-53.22265625,-56.15234375,-43.9453125,-30.76171875
-52.734375,-58.59375,-40.0390625,-29.78515625
-53.7109375,-51.26953125,-36.62109375,-33.203125
-54.19921875,-45.41015625,-35.64453125,-43.45703125
-57.12890625,-48.33984375,-37.59765625,-48.828125
-56.15234375,-54.19921875,-41.50390625,-49.8046875
-51.7578125,-55.17578125,-44.921875,-45.41015625
-51.7578125,-46.38671875,-46.38671875,-44.921875
-50.78125,-35.64453125,-44.921875,-49.31640625
-60.546875,-43.9453125,-49.31640625,-56.640625
-70.3125,-55.17578125,-48.33984375,-61.03515625
-65.4296875,-54.6875,-50.78125,-57.6171875
-56.15234375,-46.875,-48.33984375,-51.7578125
-69.3359375,-43.9453125,-43.9453125,-58.59375
-81.54296875,-50.78125,-49.8046875,-68.84765625
-71.2890625,-55.6640625,-50.78125,-58.59375
-58.10546875,-57.12890625,-45.41015625,-50.78125
-50.29296875,-56.640625,-47.36328125,-53.7109375
-51.7578125,-52.24609375,-54.19921875,-56.640625
-55.17578125,-49.31640625,-53.7109375,-63.96484375
-60.05859375,-55.6640625,-51.7578125,-61.5234375
-71.2890625,-62.5,-53.22265625,-61.03515625
-64.94140625,-57.6171875,-50.78125,-59.08203125
-59.08203125,-49.8046875,-51.26953125,-55.17578125
-68.84765625,-54.19921875,-53.22265625,-56.640625
-68.359375,-62.5,-49.8046875,-49.31640625
-62.01171875,-58.59375,-50.78125,-53.22265625
-60.05859375,-52.24609375,-58.10546875,-63.96484375
-52.734375,-51.7578125,-62.5,-57.6171875
-48.33984375,-54.6875,-57.6171875,-54.19921875
-52.24609375,-53.7109375,-55.6640625,-52.24609375
-51.7578125,-52.24609375,-59.08203125,-48.828125
-41.015625,-46.38671875,-58.59375,-45.8984375
-32.2265625,-41.015625,-55.17578125,-41.9921875
-38.57421875,-42.48046875,-58.10546875,-48.33984375
-42.48046875,-50.29296875,-59.08203125,-47.36328125
-50.78125,-53.22265625,-55.17578125,-44.43359375
-66.89453125,-49.8046875,-57.6171875,-56.640625
-64.94140625,-44.43359375,-53.7109375,-60.05859375
-52.734375,-40.0390625,-46.875,-54.6875
-57.12890625,-48.33984375,-51.26953125,-57.6171875
-66.89453125,-56.15234375,-53.22265625,-68.84765625
-62.01171875,-51.7578125,-50.29296875,-70.3125
-53.7109375,-48.828125,-47.36328125,-61.5234375
-54.6875,-50.78125,-46.38671875,-57.6171875
-56.15234375,-50.78125,-50.78125,-59.5703125
-56.15234375,-47.8515625,-60.05859375,-62.01171875
-51.26953125,-46.38671875,-60.546875,-53.7109375
-32.2265625,-39.55078125,-56.640625,-41.015625
-25.87890625,-30.2734375,-53.22265625,-35.15625
-31.25,-32.2265625,-47.36328125,-37.59765625
-34.1796875,-43.9453125,-52.734375,-35.15625
-23.4375,-46.38671875,-47.8515625,-20.99609375
-16.11328125,-37.59765625,-33.69140625,-16.6015625
-38.0859375,-45.41015625,-39.55078125,-36.62109375
-46.875,-52.24609375,-51.26953125,-48.33984375
-38.0859375,-51.7578125,-52.734375,-41.50390625
-39.55078125,-53.22265625,-48.33984375,-36.1328125
-32.2265625,-47.36328125,-41.9921875,-34.66796875
-35.15625,-44.921875,-42.48046875,-39.55078125
-53.22265625,-52.734375,-49.31640625,-46.875
-61.03515625,-58.10546875,-50.78125,-50.29296875
-58.59375,-52.24609375,-52.24609375,-48.33984375
-56.15234375,-43.9453125,-55.6640625,-50.29296875
-55.6640625,-44.921875,-55.17578125,-56.15234375
-60.05859375,-48.33984375,-55.6640625,-62.98828125
-66.89453125,-55.17578125,-53.7109375,-69.82421875
-65.4296875,-56.640625,-48.33984375,-64.453125
-56.15234375,-46.38671875,-45.41015625,-58.59375
-56.15234375,-44.921875,-45.41015625,-57.6171875
-57.12890625,-52.734375,-46.38671875,-52.24609375
-52.24609375,-56.15234375,-49.31640625,-47.8515625
-44.921875,-56.640625,-49.8046875,-45.41015625
-39.55078125,-49.8046875,-48.33984375,-43.45703125
-38.57421875,-40.52734375,-45.8984375,-39.0625
-42.96875,-46.875,-43.45703125,-38.57421875
-49.31640625,-61.5234375,-44.921875,-43.45703125
-48.33984375,-57.6171875,-47.8515625,-41.015625
-44.43359375,-46.38671875,-54.19921875,-39.55078125
-40.52734375,-40.0390625,-53.7109375,-39.55078125
-34.66796875,-35.64453125,-44.921875,-36.62109375
-35.15625,-41.9921875,-41.015625,-37.59765625
-35.15625,-48.33984375,-39.55078125,-37.59765625
-35.64453125,-41.015625,-41.015625,-36.62109375
-34.66796875,-39.0625,-46.875,-37.59765625
-41.9921875,-42.96875,-41.9921875,-39.0625
-60.05859375,-47.36328125,-40.0390625,-49.8046875
-63.4765625,-51.26953125,-50.29296875,-51.26953125
-57.12890625,-47.8515625,-50.78125,-45.8984375
-55.6640625,-37.109375,-47.8515625,-47.36328125
-54.6875,-29.296875,-47.8515625,-56.640625
-64.94140625,-40.0390625,-49.8046875,-69.3359375
-73.73046875,-52.24609375,-50.78125,-75.68359375
-70.3125,-50.78125,-52.734375,-70.80078125
-62.5,-43.45703125,-50.78125,-66.89453125
-51.26953125,-36.62109375,-43.9453125,-60.546875
-50.78125,-37.109375,-42.96875,-56.15234375
-55.6640625,-46.875,-50.29296875,-57.6171875
-47.8515625,-45.41015625,-51.7578125,-51.26953125
-34.66796875,-39.0625,-47.8515625,-41.015625
-30.76171875,-41.50390625,-45.8984375,-34.66796875
-42.96875,-51.26953125,-48.828125,-36.62109375
-49.8046875,-53.7109375,-49.8046875,-35.64453125
-37.59765625,-50.29296875,-51.26953125,-30.76171875
-24.4140625,-47.8515625,-49.31640625,-26.3671875
-23.4375,-42.48046875,-45.8984375,-29.296875
-30.2734375,-44.921875,-46.875,-39.0625
-36.1328125,-51.7578125,-44.921875,-41.9921875
-42.96875,-56.640625,-47.36328125,-42.48046875
-45.8984375,-53.7109375,-48.33984375,-46.38671875
-48.828125,-46.38671875,-45.8984375,-48.33984375
-50.29296875,-42.96875,-47.36328125,-49.8046875
-49.31640625,-41.50390625,-48.33984375,-48.828125
-58.10546875,-51.7578125,-55.6640625,-51.7578125
-55.17578125,-56.15234375,-58.59375,-53.7109375
-47.36328125,-48.828125,-55.17578125,-56.15234375
-53.22265625,-44.43359375,-55.17578125,-58.59375
-60.05859375,-43.9453125,-53.22265625,-60.05859375
-64.94140625,-47.36328125,-56.15234375,-62.01171875
-62.98828125,-46.875,-57.6171875,-59.08203125
-51.7578125,-41.9921875,-49.8046875,-53.7109375
-48.828125,-40.0390625,-47.8515625,-57.12890625
-47.8515625,-41.015625,-48.828125,-58.59375
-40.0390625,-41.9921875,-45.8984375,-47.36328125
-38.57421875,-45.8984375,-44.43359375,-39.55078125
-39.55078125,-45.8984375,-47.36328125,-39.0625
-40.0390625,-44.921875,-47.8515625,-40.52734375
-38.57421875,-45.8984375,-44.921875,-34.66796875
-37.59765625,-46.38671875,-47.8515625,-26.3671875
-36.1328125,-48.33984375,-47.8515625,-25.390625
-34.1796875,-44.43359375,-41.9921875,-28.80859375
-33.69140625,-40.0390625,-43.45703125,-35.64453125
-36.62109375,-38.57421875,-43.9453125,-41.9921875
-41.015625,-44.921875,-42.96875,-49.31640625
-41.015625,-46.875,-44.43359375,-46.38671875
-38.0859375,-46.875,-49.8046875,-42.48046875
-40.0390625,-48.828125,-54.19921875,-45.8984375
-44.43359375,-44.921875,-52.24609375,-48.828125
-47.36328125,-49.8046875,-44.43359375,-44.43359375
-43.45703125,-56.640625,-39.55078125,-36.62109375
-45.8984375,-48.33984375,-41.015625,-41.9921875
-52.734375,-41.50390625,-44.921875,-57.12890625
-55.6640625,-48.828125,-42.96875,-62.5
-59.08203125,-56.15234375,-40.0390625,-52.24609375
-50.78125,-61.03515625,-37.109375,-41.015625
-37.59765625,-53.7109375,-37.59765625,-33.69140625
-36.62109375,-36.62109375,-47.36328125,-42.48046875
-44.43359375,-39.0625,-50.78125,-55.6640625
-54.6875,-53.22265625,-54.19921875,-60.546875
-53.7109375,-51.26953125,-48.33984375,-48.33984375
-39.0625,-42.48046875,-43.45703125,-34.1796875
-37.109375,-36.62109375,-50.78125,-32.71484375
-47.8515625,-41.50390625,-56.640625,-42.48046875
-49.31640625,-48.33984375,-59.5703125,-48.828125
-41.9921875,-46.38671875,-55.17578125,-43.9453125
-36.62109375,-43.45703125,-52.24609375,-43.45703125
-31.25,-39.0625,-51.26953125,-47.8515625
-32.2265625,-35.64453125,-49.8046875,-50.78125
-33.203125,-35.15625,-52.24609375,-49.8046875
-32.2265625,-42.48046875,-52.734375,-48.828125
-28.3203125,-48.828125,-53.7109375,-45.8984375
-23.4375,-41.50390625,-46.875,-38.57421875
-30.2734375,-40.52734375,-43.9453125,-42.96875
-39.0625,-47.8515625,-50.29296875,-54.6875
-38.57421875,-53.22265625,-48.828125,-53.22265625
-33.203125,-49.31640625,-48.828125,-43.9453125
-36.1328125,-41.50390625,-48.828125,-41.9921875
-45.41015625,-43.45703125,-49.31640625,-45.8984375
-43.9453125,-48.828125,-51.26953125,-45.8984375
-41.015625,-49.8046875,-53.7109375,-38.0859375
-37.109375,-46.875,-54.6875,-28.3203125
-36.62109375,-41.50390625,-58.59375,-33.203125
-45.41015625,-44.43359375,-59.5703125,-44.43359375
-50.29296875,-47.8515625,-50.29296875,-41.015625
-51.7578125,-55.6640625,-47.8515625,-39.55078125
-58.59375,-61.5234375,-50.78125,-43.45703125
-64.94140625,-59.5703125,-50.78125,-43.45703125
-54.6875,-54.19921875,-53.7109375,-38.57421875
-44.43359375,-48.33984375,-56.640625,-42.96875
-50.29296875,-49.8046875,-61.03515625,-59.5703125
-54.19921875,-52.24609375,-59.08203125,-68.84765625
-46.875,-48.33984375,-51.7578125,-66.40625
-42.96875,-41.9921875,-47.8515625,-61.5234375
-42.96875,-41.9921875,-46.38671875,-60.05859375
-41.9921875,-47.8515625,-52.24609375,-64.453125
-40.0390625,-47.8515625,-59.08203125,-65.91796875
-41.015625,-41.015625,-57.12890625,-62.98828125
-40.52734375,-37.59765625,-49.8046875,-63.96484375
-41.50390625,-38.57421875,-44.43359375,-59.08203125
-53.7109375,-48.828125,-46.38671875,-59.08203125
-62.5,-55.6640625,-53.22265625,-62.01171875
-59.08203125,-47.8515625,-58.59375,-61.03515625
-53.22265625,-42.96875,-55.17578125,-53.7109375
-53.22265625,-42.96875,-46.38671875,-44.43359375
-57.12890625,-40.52734375,-46.38671875,-46.38671875
-52.734375,-45.41015625,-43.9453125,-35.64453125
-49.31640625,-49.8046875,-40.0390625,-29.296875
-54.6875,-47.8515625,-41.9921875,-39.0625
-61.5234375,-50.29296875,-50.78125,-50.78125
-55.17578125,-45.8984375,-57.12890625,-53.7109375
-47.8515625,-46.38671875,-52.24609375,-48.33984375
-43.45703125,-47.36328125,-42.96875,-45.41015625
-36.1328125,-44.43359375,-40.0390625,-43.45703125
-37.59765625,-39.0625,-48.33984375,-49.8046875
-49.8046875,-40.52734375,-59.08203125,-65.4296875
-57.6171875,-49.31640625,-60.05859375,-72.75390625
-51.7578125,-43.45703125,-55.17578125,-61.5234375
-41.9921875,-34.66796875,-51.26953125,-56.15234375
-44.921875,-35.64453125,-48.828125,-62.5
-55.17578125,-42.96875,-51.26953125,-63.96484375
-54.6875,-53.7109375,-52.24609375,-62.5
-49.8046875,-52.734375,-47.8515625,-55.17578125
-47.36328125,-41.9921875,-46.38671875,-55.6640625
-48.828125,-42.48046875,-51.26953125,-62.98828125
-53.7109375,-47.36328125,-49.31640625,-61.03515625
-61.5234375,-54.19921875,-43.9453125,-56.640625
-64.94140625,-53.7109375,-41.015625,-48.828125
-61.03515625,-45.41015625,-37.59765625,-44.43359375
-55.6640625,-39.55078125,-40.52734375,-44.43359375
-57.6171875,-39.0625,-44.921875,-50.29296875
-61.03515625,-45.8984375,-46.875,-52.24609375
-56.640625,-49.31640625,-49.31640625,-44.43359375
-47.36328125,-41.9921875,-46.875,-39.0625
-48.33984375,-37.59765625,-42.48046875,-45.41015625
-59.08203125,-36.1328125,-46.38671875,-55.17578125
-61.03515625,-39.0625,-47.8515625,-56.15234375
-55.17578125,-43.9453125,-44.921875,-57.12890625
-49.31640625,-42.96875,-44.43359375,-55.6640625
-42.48046875,-37.59765625,-44.921875,-57.12890625
-52.734375,-40.0390625,-52.734375,-65.91796875
-62.5,-44.921875,-52.734375,-62.98828125
-59.5703125,-49.31640625,-46.875,-57.6171875
-58.10546875,-51.26953125,-52.734375,-56.15234375
-61.03515625,-45.41015625,-53.7109375,-51.26953125
-61.5234375,-47.8515625,-42.96875,-50.78125
-55.6640625,-53.22265625,-41.9921875,-41.015625
-50.29296875,-54.6875,-46.38671875,-23.4375
-44.921875,-46.38671875,-44.921875,-21.484375
-34.66796875,-35.64453125,-46.38671875,-26.3671875
-34.66796875,-41.50390625,-47.36328125,-28.80859375
-41.9921875,-51.26953125,-46.875,-30.76171875
-43.45703125,-56.640625,-53.22265625,-36.1328125
-37.109375,-48.828125,-60.05859375,-34.66796875
-36.1328125,-39.55078125,-55.6640625,-29.78515625
-45.8984375,-43.45703125,-55.6640625,-41.015625
-47.36328125,-46.875,-60.05859375,-46.875
-46.875,-51.7578125,-52.24609375,-41.9921875
-51.26953125,-48.33984375,-41.50390625,-42.48046875
-49.8046875,-42.96875,-45.41015625,-46.38671875
-42.96875,-41.9921875,-55.6640625,-46.38671875
-45.41015625,-43.9453125,-61.03515625,-52.24609375
-49.8046875,-47.36328125,-62.98828125,-58.10546875
-48.33984375,-49.31640625,-55.6640625,-49.8046875
-45.8984375,-43.45703125,-42.96875,-43.45703125
-49.31640625,-32.71484375,-40.0390625,-47.8515625
-63.96484375,-42.96875,-52.24609375,-57.12890625
-73.2421875,-59.5703125,-50.29296875,-62.98828125
-65.91796875,-53.7109375,-37.59765625,-53.7109375
-59.08203125,-42.96875,-42.96875,-46.38671875
-60.05859375,-37.59765625,-45.41015625,-44.43359375
-63.4765625,-36.62109375,-48.33984375,-43.45703125
-66.89453125,-42.48046875,-54.19921875,-49.31640625
-67.3828125,-47.36328125,-46.38671875,-49.8046875
-55.17578125,-38.57421875,-44.921875,-49.8046875
-44.921875,-34.66796875,-45.8984375,-48.33984375
-43.45703125,-35.64453125,-42.96875,-52.24609375
-47.8515625,-34.1796875,-47.8515625,-55.6640625
-42.96875,-41.9921875,-50.78125,-50.78125
-26.3671875,-39.55078125,-52.24609375,-40.52734375
-20.5078125,-35.15625,-54.6875,-40.52734375
-30.76171875,-41.50390625,-51.26953125,-49.8046875
-39.0625,-52.734375,-48.828125,-44.921875
-34.1796875,-54.6875,-49.8046875,-36.1328125
-28.3203125,-42.96875,-45.41015625,-31.25
-30.2734375,-30.2734375,-45.8984375,-33.69140625
-36.1328125,-30.2734375,-45.8984375,-38.0859375
-37.109375,-41.50390625,-43.9453125,-32.71484375
-34.66796875,-45.41015625,-50.78125,-33.203125
-29.78515625,-33.69140625,-51.26953125,-28.3203125
-25.87890625,-26.85546875,-41.50390625,-26.85546875
-44.43359375,-38.57421875,-40.52734375,-41.50390625
-57.12890625,-49.8046875,-48.828125,-47.8515625
-46.38671875,-55.17578125,-53.22265625,-41.015625
-31.73828125,-49.31640625,-52.24609375,-35.64453125
-31.73828125,-41.50390625,-46.875,-37.59765625
-45.8984375,-38.57421875,-45.8984375,-45.41015625
-55.6640625,-38.57421875,-47.8515625,-49.8046875
-58.59375,-42.48046875,-44.921875,-47.8515625
-55.17578125,-43.9453125,-38.0859375,-42.48046875
-50.78125,-41.9921875,-37.59765625,-45.41015625
-46.38671875,-39.0625,-40.0390625,-47.8515625
-44.921875,-46.875,-41.015625,-45.8984375
-42.96875,-54.6875,-43.45703125,-41.50390625
-41.015625,-50.78125,-46.875,-35.64453125
-42.48046875,-46.875,-50.78125,-36.62109375
-42.48046875,-42.96875,-47.36328125,-46.38671875
-48.828125,-41.9921875,-50.29296875,-58.59375
-61.03515625,-48.33984375,-53.22265625,-61.03515625
-62.98828125,-54.19921875,-48.828125,-52.734375
-50.29296875,-48.33984375,-47.36328125,-45.8984375
-42.96875,-49.31640625,-43.45703125,-42.96875
-48.33984375,-54.6875,-39.55078125,-42.96875
-53.7109375,-52.734375,-45.8984375,-46.875
-48.828125,-47.8515625,-50.29296875,-56.15234375
-36.62109375,-41.9921875,-52.734375,-54.6875
-44.43359375,-46.38671875,-58.10546875,-55.17578125
-44.921875,-45.8984375,-57.6171875,-63.96484375
-39.55078125,-43.9453125,-56.15234375,-62.5
-41.015625,-44.43359375,-50.29296875,-57.12890625
-41.50390625,-44.921875,-43.9453125,-51.26953125
-47.8515625,-43.45703125,-44.43359375,-53.7109375
-47.36328125,-42.96875,-48.33984375,-56.640625
-45.8984375,-46.875,-54.6875,-52.24609375
-43.9453125,-47.8515625,-56.15234375,-42.48046875
-45.8984375,-40.52734375,-43.9453125,-34.66796875
-56.15234375,-39.0625,-35.64453125,-38.0859375
-70.3125,-55.17578125,-47.36328125,-49.31640625
-71.77734375,-65.4296875,-57.6171875,-50.29296875
-58.59375,-57.6171875,-49.31640625,-35.64453125
-51.7578125,-52.24609375,-44.43359375,-31.25
-50.29296875,-44.43359375,-46.38671875,-37.59765625
-46.38671875,-37.59765625,-47.8515625,-42.96875
-41.9921875,-37.109375,-50.78125,-38.57421875
-39.0625,-37.59765625,-47.8515625,-37.59765625
-44.921875,-43.45703125,-47.8515625,-41.015625
-45.41015625,-44.43359375,-52.24609375,-42.96875
-47.8515625,-37.59765625,-52.734375,-47.8515625
-53.7109375,-42.96875,-47.8515625,-54.19921875
-60.546875,-54.6875,-49.8046875,-61.03515625
-53.7109375,-48.828125,-49.31640625,-52.24609375
-39.55078125,-40.52734375,-43.9453125,-41.015625
-38.57421875,-42.96875,-44.921875,-42.48046875
-44.43359375,-45.41015625,-52.24609375,-48.828125
-46.38671875,-44.43359375,-53.7109375,-55.17578125
-45.8984375,-46.38671875,-50.78125,-57.6171875
-45.41015625,-42.48046875,-49.31640625,-54.19921875
-45.8984375,-37.109375,-48.33984375,-56.15234375
-43.45703125,-39.55078125,-49.8046875,-61.5234375
-43.9453125,-38.57421875,-52.24609375,-62.5
-45.8984375,-37.109375,-47.36328125,-49.31640625
-46.38671875,-48.828125,-41.9921875,-42.96875
-54.6875,-49.31640625,-39.0625,-47.36328125
-62.5,-51.7578125,-41.9921875,-47.8515625
-60.546875,-57.6171875,-46.875,-42.96875
-60.546875,-52.24609375,-48.33984375,-43.9453125
-62.98828125,-45.8984375,-45.41015625,-50.29296875
-56.640625,-41.9921875,-43.45703125,-48.828125
-53.22265625,-43.45703125,-44.921875,-48.828125
-64.453125,-52.24609375,-49.8046875,-56.15234375
-66.89453125,-54.19921875,-50.78125,-61.5234375
-49.31640625,-39.0625,-44.921875,-53.7109375
-36.62109375,-41.015625,-48.33984375,-49.8046875
-42.96875,-50.78125,-48.828125,-57.12890625
-53.7109375,-50.78125,-44.921875,-59.5703125
-51.26953125,-52.24609375,-48.828125,-52.734375
-37.109375,-46.875,-50.29296875,-48.828125
-30.76171875,-39.55078125,-51.26953125,-48.33984375
-45.41015625,-43.45703125,-51.26953125,-54.6875
-53.22265625,-49.31640625,-55.6640625,-63.4765625
-40.0390625,-44.921875,-61.03515625,-56.640625
-37.59765625,-42.96875,-50.29296875,-45.41015625
-50.78125,-47.8515625,-36.62109375,-47.36328125
-66.40625,-52.734375,-45.41015625,-59.08203125
-64.453125,-60.546875,-53.7109375,-54.19921875
-59.08203125,-63.96484375,-47.36328125,-43.9453125
-62.5,-55.6640625,-47.8515625,-45.41015625
-56.640625,-43.45703125,-49.31640625,-48.828125
-56.15234375,-39.55078125,-49.31640625,-56.640625
-52.734375,-41.50390625,-53.7109375,-54.19921875
-38.57421875,-43.45703125,-49.8046875,-39.55078125
-37.59765625,-41.50390625,-48.828125,-45.8984375
-43.45703125,-35.64453125,-48.828125,-56.15234375
-44.43359375,-33.69140625,-41.9921875,-52.24609375
-45.8984375,-38.0859375,-41.9921875,-55.17578125
-42.96875,-44.921875,-46.38671875,-54.6875
-37.59765625,-44.43359375,-46.875,-50.78125
-35.64453125,-41.9921875,-42.48046875,-46.38671875
-35.15625,-44.43359375,-42.96875,-44.921875
-36.62109375,-46.875,-55.6640625,-54.19921875
-41.50390625,-48.33984375,-59.08203125,-61.03515625
-46.875,-48.33984375,-51.7578125,-61.03515625
-43.9453125,-42.96875,-51.7578125,-55.17578125
-38.57421875,-40.52734375,-45.8984375,-47.36328125
-44.921875,-41.50390625,-40.0390625,-43.9453125
-51.7578125,-43.9453125,-41.9921875,-42.96875
-56.15234375,-50.78125,-52.24609375,-44.921875
-51.7578125,-38.57421875,-56.640625,-43.45703125
-43.45703125,-29.78515625,-53.22265625,-40.0390625
-46.38671875,-40.52734375,-51.7578125,-41.015625
-56.15234375,-50.78125,-60.546875,-47.8515625
-57.12890625,-51.26953125,-62.98828125,-54.19921875
-43.9453125,-40.52734375,-45.8984375,-46.38671875
-43.45703125,-39.0625,-42.96875,-48.33984375
-51.7578125,-41.9921875,-50.78125,-60.05859375
-57.6171875,-48.33984375,-57.12890625,-60.05859375
-54.19921875,-51.7578125,-54.6875,-48.828125
-56.15234375,-49.31640625,-51.26953125,-55.6640625
-57.6171875,-51.7578125,-51.7578125,-62.5
-46.38671875,-44.921875,-48.828125,-51.7578125
-49.8046875,-40.0390625,-49.31640625,-55.17578125
-54.19921875,-52.24609375,-51.26953125,-63.96484375
-48.828125,-53.7109375,-52.24609375,-58.59375
-48.828125,-46.38671875,-55.6640625,-57.12890625
-54.6875,-52.24609375,-55.17578125,-62.01171875
-53.22265625,-53.7109375,-52.24609375,-53.22265625
-53.22265625,-53.7109375,-54.6875,-48.33984375
-55.6640625,-53.7109375,-48.33984375,-55.17578125
-51.26953125,-42.96875,-41.9921875,-54.6875
-55.17578125,-43.45703125,-41.015625,-55.17578125
-60.05859375,-51.7578125,-45.8984375,-59.08203125
-59.08203125,-50.29296875,-48.828125,-55.6640625
-51.26953125,-50.29296875,-42.96875,-46.38671875
-51.26953125,-51.26953125,-36.1328125,-39.55078125
-60.05859375,-52.24609375,-40.52734375,-42.48046875
-62.5,-58.10546875,-47.36328125,-48.828125
-66.40625,-55.6640625,-49.8046875,-54.19921875
-63.96484375,-54.6875,-56.15234375,-56.640625
-53.7109375,-52.24609375,-54.6875,-50.29296875
-46.875,-47.8515625,-42.48046875,-44.921875
-51.26953125,-53.22265625,-41.50390625,-50.78125
-53.7109375,-59.5703125,-46.38671875,-54.19921875
-47.36328125,-54.19921875,-47.36328125,-48.33984375
-36.62109375,-41.9921875,-47.8515625,-44.43359375
-29.78515625,-35.64453125,-36.62109375,-35.64453125
-37.109375,-51.7578125,-38.0859375,-35.15625
-40.52734375,-58.10546875,-45.41015625,-32.2265625
-26.3671875,-42.48046875,-45.41015625,-21.97265625
-19.04296875,-34.66796875,-49.31640625,-30.76171875
-25.87890625,-35.64453125,-49.8046875,-39.55078125
-32.71484375,-41.50390625,-50.78125,-43.9453125
-35.64453125,-47.8515625,-56.640625,-48.828125
-40.0390625,-53.7109375,-58.59375,-47.8515625
-49.8046875,-50.78125,-58.59375,-46.38671875
-47.36328125,-41.015625,-52.734375,-41.50390625
-46.875,-38.57421875,-47.8515625,-47.36328125
-64.94140625,-54.6875,-57.12890625,-66.40625
-79.1015625,-65.91796875,-64.453125,-71.2890625
-73.2421875,-54.19921875,-55.17578125,-64.453125
-64.94140625,-48.828125,-46.875,-59.5703125
-62.01171875,-47.36328125,-44.921875,-52.24609375
-64.94140625,-47.8515625,-55.6640625,-61.03515625
-63.4765625,-51.26953125,-63.96484375,-71.77734375
-57.6171875,-47.8515625,-55.17578125,-68.84765625
-64.94140625,-44.921875,-49.8046875,-73.73046875
-70.80078125,-51.26953125,-50.78125,-76.171875
-67.87109375,-57.12890625,-51.7578125,-71.77734375
-62.98828125,-51.7578125,-50.78125,-67.87109375
-57.6171875,-51.7578125,-58.59375,-68.359375
-49.31640625,-54.19921875,-56.15234375,-57.12890625
-41.015625,-51.7578125,-40.0390625,-43.9453125
-45.41015625,-57.6171875,-37.59765625,-40.52734375
-45.41015625,-60.05859375,-42.48046875,-35.64453125
-35.64453125,-55.6640625,-41.9921875,-23.92578125
-26.85546875,-51.7578125,-39.55078125,-14.6484375
-26.85546875,-49.31640625,-41.50390625,-20.99609375
-41.015625,-48.33984375,-43.9453125,-36.1328125
-49.8046875,-47.36328125,-49.8046875,-45.8984375
-41.50390625,-43.9453125,-50.29296875,-40.52734375
-36.1328125,-32.71484375,-52.734375,-35.64453125
-37.59765625,-29.296875,-59.5703125,-42.96875
-41.015625,-39.55078125,-59.5703125,-45.8984375
-42.96875,-44.921875,-56.640625,-46.38671875
-50.29296875,-49.31640625,-50.78125,-53.7109375
-58.59375,-52.734375,-47.36328125,-58.59375
-57.12890625,-50.29296875,-48.33984375,-60.05859375
-56.640625,-50.78125,-54.19921875,-65.4296875
-55.17578125,-54.19921875,-59.08203125,-70.3125
-48.828125,-48.33984375,-58.10546875,-66.89453125
-46.38671875,-39.55078125,-53.7109375,-61.5234375
-49.8046875,-40.0390625,-49.31640625,-59.5703125
-57.12890625,-47.8515625,-49.31640625,-58.59375
-62.01171875,-53.7109375,-51.7578125,-48.33984375
-54.6875,-53.22265625,-53.22265625,-40.52734375
-52.734375,-48.828125,-49.31640625,-41.50390625
-51.7578125,-47.8515625,-45.41015625,-39.55078125
-53.7109375,-52.24609375,-43.9453125,-48.828125
-58.10546875,-53.7109375,-42.96875,-49.8046875
-57.12890625,-56.15234375,-47.36328125,-37.109375
-46.875,-51.7578125,-49.31640625,-37.109375
-36.1328125,-44.43359375,-49.31640625,-39.55078125
-34.1796875,-42.48046875,-48.33984375,-38.0859375
-38.57421875,-47.36328125,-47.36328125,-41.50390625
-45.41015625,-50.29296875,-41.9921875,-41.50390625
-36.1328125,-46.38671875,-41.015625,-38.57421875
-21.97265625,-43.45703125,-45.8984375,-34.66796875
-35.64453125,-47.36328125,-53.22265625,-42.96875
-49.31640625,-47.8515625,-59.08203125,-51.7578125
-44.43359375,-42.48046875,-54.19921875,-51.26953125
-39.0625,-39.55078125,-48.828125,-48.33984375
-38.0859375,-40.0390625,-49.8046875,-45.41015625
-44.921875,-42.48046875,-50.78125,-47.8515625
-50.78125,-44.921875,-57.12890625,-52.734375
-54.6875,-48.33984375,-59.08203125,-58.10546875
-55.6640625,-43.9453125,-51.26953125,-55.17578125
-48.828125,-30.76171875,-43.45703125,-50.78125
-48.33984375,-31.25,-46.875,-59.08203125
-56.15234375,-45.8984375,-53.7109375,-64.453125
-63.96484375,-55.17578125,-54.19921875,-57.12890625
-66.89453125,-52.24609375,-49.31640625,-47.8515625
-59.08203125,-46.875,-42.96875,-47.36328125
-58.10546875,-45.8984375,-43.45703125,-47.8515625
-61.03515625,-51.7578125,-46.875,-50.78125
-54.19921875,-52.734375,-50.78125,-48.828125
-45.8984375,-41.50390625,-51.7578125,-41.50390625
-46.875,-41.9921875,-52.734375,-45.41015625
-54.19921875,-49.8046875,-52.734375,-56.15234375
-53.22265625,-46.875,-50.29296875,-53.22265625
-46.875,-53.22265625,-53.7109375,-41.9921875
-36.1328125,-58.59375,-53.7109375,-37.59765625
-31.25,-41.9921875,-50.29296875,-34.66796875
-39.0625,-40.0390625,-49.8046875,-39.55078125
-44.921875,-46.875,-51.7578125,-45.41015625
-45.8984375,-53.22265625,-56.15234375,-44.43359375
-40.52734375,-54.6875,-51.26953125,-38.57421875
-41.015625,-44.43359375,-41.9921875,-39.55078125
-54.19921875,-41.9921875,-48.33984375,-51.7578125
-61.03515625,-47.36328125,-56.15234375,-58.59375
-59.5703125,-49.31640625,-62.01171875,-58.59375
-62.01171875,-50.78125,-63.4765625,-58.59375
-61.03515625,-52.24609375,-55.17578125,-58.59375
-60.546875,-58.10546875,-54.19921875,-58.10546875
-60.546875,-61.03515625,-56.15234375,-56.15234375
-54.6875,-53.22265625,-56.640625,-54.6875
-49.31640625,-52.24609375,-54.19921875,-50.78125
-45.41015625,-51.7578125,-49.31640625,-45.41015625
-44.43359375,-49.31640625,-45.8984375,-42.96875
-49.31640625,-46.875,-42.96875,-41.015625
-48.828125,-44.921875,-48.33984375,-41.9921875
-43.45703125,-47.8515625,-45.8984375,-36.1328125
-38.0859375,-47.36328125,-36.1328125,-23.92578125
-36.1328125,-37.59765625,-33.203125,-27.83203125
-46.875,-42.96875,-45.41015625,-38.0859375
-53.7109375,-51.26953125,-54.19921875,-42.48046875
-46.38671875,-42.96875,-46.38671875,-38.0859375
-40.52734375,-40.0390625,-44.921875,-36.1328125
-39.55078125,-38.57421875,-46.38671875,-39.0625
-43.45703125,-37.109375,-49.8046875,-44.921875
-45.8984375,-37.59765625,-54.6875,-46.875
-47.36328125,-40.52734375,-52.734375,-45.8984375
-54.6875,-44.43359375,-46.38671875,-49.31640625
-57.6171875,-40.52734375,-47.8515625,-50.29296875
-50.78125,-40.52734375,-50.78125,-48.828125
-51.26953125,-41.50390625,-56.15234375,-51.26953125
-66.89453125,-53.7109375,-68.359375,-62.5
-69.82421875,-59.5703125,-61.5234375,-66.89453125
-53.7109375,-41.015625,-51.26953125,-59.08203125
-45.8984375,-40.0390625,-46.38671875,-48.828125
-57.12890625,-52.734375,-40.52734375,-55.17578125
-65.91796875,-59.08203125,-43.45703125,-56.15234375
-55.17578125,-55.6640625,-43.9453125,-47.36328125
-49.31640625,-47.36328125,-41.9921875,-49.8046875
-55.6640625,-43.9453125,-45.41015625,-55.17578125
-55.6640625,-53.22265625,-48.828125,-58.59375
-50.29296875,-60.05859375,-46.38671875,-48.828125
-47.36328125,-54.6875,-44.43359375,-36.62109375
-39.0625,-44.921875,-43.9453125,-28.3203125
-35.15625,-44.921875,-42.48046875,-29.78515625
-32.2265625,-47.36328125,-41.9921875,-32.2265625
-34.1796875,-49.31640625,-47.8515625,-27.83203125
-40.0390625,-48.828125,-52.734375,-34.1796875
-34.1796875,-39.0625,-52.24609375,-41.015625
-29.296875,-39.55078125,-44.921875,-34.1796875
-41.50390625,-46.875,-47.36328125,-40.0390625
-49.31640625,-44.43359375,-53.22265625,-46.38671875
-50.29296875,-52.24609375,-48.828125,-40.0390625
-46.875,-50.78125,-45.8984375,-48.33984375
-52.24609375,-40.52734375,-54.6875,-61.03515625
-66.89453125,-45.41015625,-57.12890625,-68.84765625
-68.359375,-51.26953125,-51.26953125,-65.4296875
-60.546875,-49.8046875,-52.734375,-56.15234375
-54.6875,-42.96875,-54.19921875,-58.59375
-56.15234375,-39.55078125,-55.17578125,-62.5
-60.546875,-38.0859375,-53.7109375,-60.546875
-69.3359375,-44.921875,-54.19921875,-70.80078125
-71.2890625,-56.640625,-52.24609375,-75.68359375
-60.546875,-53.7109375,-51.26953125,-64.94140625
-51.26953125,-42.96875,-52.24609375,-65.91796875
-54.6875,-41.50390625,-54.6875,-70.80078125
-51.7578125,-44.921875,-61.5234375,-70.80078125
-47.8515625,-42.96875,-58.10546875,-63.96484375
-47.8515625,-43.45703125,-42.96875,-44.921875
-49.31640625,-49.31640625,-46.875,-46.38671875
-59.08203125,-52.24609375,-56.640625,-62.01171875
-57.12890625,-50.29296875,-59.5703125,-60.546875
-56.15234375,-48.828125,-61.03515625,-61.03515625
-58.10546875,-45.41015625,-47.8515625,-62.01171875
-58.10546875,-41.9921875,-36.62109375,-60.05859375
-62.01171875,-40.0390625,-39.0625,-60.546875
-62.98828125,-45.8984375,-40.52734375,-57.6171875
-57.12890625,-50.29296875,-44.43359375,-55.17578125
-50.78125,-42.96875,-48.33984375,-56.640625
-46.875,-38.57421875,-50.29296875,-56.640625
-44.921875,-39.55078125,-47.36328125,-57.6171875
-52.734375,-47.8515625,-51.7578125,-64.453125
-61.03515625,-54.6875,-56.640625,-64.453125
-56.640625,-54.19921875,-50.78125,-59.5703125
-53.22265625,-55.17578125,-51.7578125,-56.640625
-52.24609375,-55.6640625,-58.10546875,-60.05859375
-49.8046875,-58.10546875,-56.640625,-62.01171875
-54.6875,-59.08203125,-50.29296875,-53.7109375
-57.6171875,-60.546875,-50.78125,-49.31640625
-52.24609375,-55.6640625,-50.29296875,-45.41015625
-46.38671875,-48.33984375,-45.8984375,-38.0859375
-46.875,-49.31640625,-46.38671875,-41.015625
-52.734375,-61.03515625,-48.33984375,-46.38671875
-55.6640625,-62.01171875,-48.828125,-41.50390625
-46.875,-49.8046875,-45.8984375,-32.71484375
-36.62109375,-41.9921875,-46.875,-31.25
-40.0390625,-43.45703125,-51.26953125,-39.55078125
-47.8515625,-50.78125,-52.734375,-48.828125
-45.41015625,-49.31640625,-56.15234375,-50.29296875
-35.64453125,-42.48046875,-56.640625,-50.78125
-29.296875,-41.015625,-50.78125,-51.26953125
-38.0859375,-41.015625,-49.8046875,-55.17578125
-37.109375,-31.25,-50.29296875,-53.22265625
-38.0859375,-28.3203125,-56.15234375,-55.17578125
-46.38671875,-37.59765625,-61.5234375,-63.96484375
-36.62109375,-32.2265625,-53.22265625,-60.05859375
-33.203125,-27.34375,-51.7578125,-61.5234375
-43.45703125,-36.1328125,-58.10546875,-63.96484375
-47.8515625,-43.45703125,-48.828125,-58.10546875
-53.22265625,-48.33984375,-43.45703125,-56.15234375
-56.640625,-43.9453125,-50.29296875,-56.15234375
-57.6171875,-41.50390625,-51.7578125,-60.546875
-64.94140625,-49.31640625,-49.31640625,-66.89453125
-68.359375,-57.6171875,-49.8046875,-62.01171875
-63.96484375,-55.17578125,-50.29296875,-48.33984375
-60.546875,-45.8984375,-48.828125,-41.50390625
-61.03515625,-52.24609375,-43.45703125,-41.015625
-66.40625,-58.59375,-44.43359375,-46.38671875
-72.265625,-55.17578125,-53.22265625,-52.734375
-62.5,-49.8046875,-54.19921875,-49.31640625
-50.78125,-41.50390625,-51.26953125,-43.45703125
-48.33984375,-38.0859375,-46.875,-42.96875
-49.31640625,-44.43359375,-47.8515625,-44.43359375
-51.7578125,-48.33984375,-55.17578125,-48.33984375
-50.29296875,-45.41015625,-60.546875,-48.33984375
-46.875,-41.50390625,-54.19921875,-46.38671875
-46.875,-39.55078125,-43.45703125,-46.38671875
-52.24609375,-46.38671875,-42.96875,-43.9453125
-56.15234375,-54.19921875,-44.43359375,-43.45703125
-52.24609375,-51.26953125,-47.36328125,-51.26953125
-51.26953125,-46.875,-50.29296875,-59.5703125
-49.31640625,-41.9921875,-47.8515625,-56.640625
-48.828125,-40.0390625,-47.36328125,-53.22265625
-48.33984375,-44.921875,-48.828125,-50.29296875
-44.43359375,-45.41015625,-40.0390625,-42.96875
-43.45703125,-39.0625,-39.0625,-41.50390625
-43.9453125,-35.15625,-49.8046875,-49.8046875
-45.8984375,-31.73828125,-50.78125,-53.7109375
-46.38671875,-34.66796875,-51.26953125,-51.7578125
-42.96875,-42.48046875,-51.7578125,-45.41015625
-37.59765625,-41.9921875,-42.96875,-37.109375
-40.52734375,-37.109375,-37.59765625,-40.0390625
-47.8515625,-42.48046875,-42.48046875,-46.38671875
-51.7578125,-47.8515625,-46.38671875,-51.7578125
-48.33984375,-43.45703125,-48.33984375,-48.828125
-44.921875,-40.0390625,-48.33984375,-42.96875
-39.55078125,-37.59765625,-46.875,-37.59765625
-41.015625,-37.59765625,-47.36328125,-42.96875
-54.19921875,-42.96875,-48.828125,-57.6171875
-59.5703125,-48.33984375,-57.12890625,-65.91796875
-52.734375,-45.8984375,-60.546875,-66.40625
-44.921875,-43.9453125,-53.22265625,-55.6640625
-51.7578125,-52.24609375,-44.921875,-55.17578125
-62.5,-58.59375,-42.96875,-62.5
-65.4296875,-60.05859375,-49.8046875,-62.5
-57.12890625,-52.734375,-47.8515625,-53.7109375
-46.38671875,-36.62109375,-39.0625,-48.33984375
-56.15234375,-39.55078125,-43.45703125,-62.5
-62.98828125,-47.8515625,-50.29296875,-67.3828125
-62.01171875,-51.26953125,-53.7109375,-58.10546875
-51.26953125,-48.828125,-54.6875,-47.36328125
-33.69140625,-42.48046875,-48.828125,-40.0390625
-37.59765625,-37.59765625,-46.38671875,-43.45703125
-42.96875,-42.48046875,-46.38671875,-45.41015625
-46.38671875,-56.15234375,-46.38671875,-43.45703125
-57.12890625,-59.08203125,-44.921875,-45.8984375
-57.12890625,-54.6875,-50.78125,-48.828125
-46.875,-43.45703125,-55.6640625,-46.38671875
-40.0390625,-39.0625,-52.734375,-45.41015625
-41.50390625,-44.43359375,-50.78125,-42.96875
-41.015625,-42.96875,-51.26953125,-38.0859375
-33.203125,-36.1328125,-45.41015625,-36.1328125
-33.69140625,-35.64453125,-38.57421875,-37.109375
-36.62109375,-42.96875,-40.0390625,-39.55078125
-39.0625,-46.38671875,-45.41015625,-36.1328125
-38.57421875,-44.43359375,-47.36328125,-29.78515625
-33.203125,-37.59765625,-42.48046875,-29.78515625
-38.57421875,-37.109375,-44.43359375,-37.59765625
-45.8984375,-45.41015625,-47.8515625,-44.43359375
-51.7578125,-53.7109375,-46.38671875,-50.78125
-54.19921875,-57.12890625,-47.36328125,-50.78125
-49.8046875,-50.29296875,-51.26953125,-57.12890625
-46.38671875,-43.45703125,-54.19921875,-57.12890625
-53.22265625,-48.828125,-46.38671875,-54.19921875
-63.4765625,-61.03515625,-43.45703125,-59.5703125
-61.5234375,-62.5,-48.33984375,-53.7109375
-60.05859375,-49.8046875,-56.640625,-54.19921875
-58.10546875,-38.0859375,-54.6875,-54.19921875
-59.5703125,-44.921875,-53.22265625,-55.17578125
-61.5234375,-53.22265625,-63.96484375,-61.5234375
-56.640625,-55.6640625,-53.22265625,-53.7109375
-52.734375,-59.5703125,-46.38671875,-52.734375
-51.26953125,-56.15234375,-50.29296875,-54.6875
-52.24609375,-49.8046875,-49.31640625,-54.19921875
-60.05859375,-49.31640625,-54.6875,-62.01171875
-69.82421875,-56.15234375,-56.15234375,-64.94140625
-65.91796875,-57.6171875,-49.8046875,-58.59375
-57.6171875,-47.36328125,-45.41015625,-56.640625
-56.15234375,-40.0390625,-43.9453125,-60.546875
-59.5703125,-46.38671875,-49.8046875,-63.96484375
-62.5,-52.24609375,-55.6640625,-54.6875
-55.6640625,-46.38671875,-56.640625,-48.33984375
-53.22265625,-43.45703125,-54.6875,-50.78125
-54.19921875,-44.43359375,-46.875,-50.29296875
-55.17578125,-49.31640625,-48.828125,-50.29296875
-55.6640625,-45.8984375,-48.828125,-51.26953125
-52.24609375,-39.55078125,-45.8984375,-48.33984375
-49.8046875,-36.1328125,-45.8984375,-46.38671875
-43.9453125,-38.57421875,-43.9453125,-45.41015625
-43.9453125,-47.36328125,-46.38671875,-45.8984375
-48.828125,-50.78125,-51.26953125,-49.8046875
-52.734375,-52.734375,-53.7109375,-52.734375
-50.29296875,-46.875,-52.24609375,-53.22265625
-52.24609375,-40.0390625,-46.875,-61.03515625
-61.03515625,-43.9453125,-48.828125,-63.4765625
-63.96484375,-49.8046875,-51.7578125,-63.4765625
-60.05859375,-49.8046875,-53.7109375,-62.98828125
-58.10546875,-45.8984375,-54.19921875,-55.17578125
-57.6171875,-45.41015625,-50.78125,-51.26953125
-61.03515625,-49.8046875,-52.734375,-54.19921875
-64.453125,-58.10546875,-52.24609375,-56.15234375
-57.12890625,-56.15234375,-49.31640625,-45.8984375
-45.8984375,-41.015625,-52.734375,-35.15625
-43.45703125,-30.76171875,-58.10546875,-45.41015625
-49.31640625,-39.0625,-58.10546875,-57.12890625
-51.26953125,-49.8046875,-50.29296875,-53.7109375
-53.7109375,-48.828125,-45.8984375,-44.921875
-58.10546875,-42.96875,-47.8515625,-43.45703125
-49.31640625,-35.15625,-49.31640625,-48.828125
-45.41015625,-34.66796875,-48.33984375,-47.8515625
-49.31640625,-40.52734375,-44.43359375,-44.43359375
-51.7578125,-44.921875,-45.41015625,-48.33984375
-55.6640625,-46.875,-48.828125,-53.7109375
-55.17578125,-42.96875,-50.29296875,-52.734375
-55.6640625,-44.921875,-54.6875,-51.7578125
-58.59375,-52.24609375,-58.59375,-53.22265625
-60.05859375,-57.6171875,-50.78125,-49.8046875
-52.734375,-52.734375,-48.33984375,-49.31640625
-47.36328125,-46.38671875,-54.6875,-51.7578125
-54.19921875,-44.921875,-59.5703125,-58.10546875
-53.7109375,-47.36328125,-56.640625,-61.03515625
-55.17578125,-53.7109375,-45.8984375,-57.12890625
-54.19921875,-50.29296875,-39.55078125,-51.26953125
-43.45703125,-41.50390625,-42.48046875,-42.48046875
-40.0390625,-39.55078125,-47.36328125,-37.59765625
-43.9453125,-45.8984375,-49.8046875,-45.41015625
-41.50390625,-46.38671875,-56.640625,-47.36328125
-31.25,-39.0625,-55.6640625,-35.15625
-21.484375,-39.55078125,-48.828125,-28.3203125
-26.85546875,-43.9453125,-53.7109375,-42.48046875
-36.1328125,-50.78125,-53.7109375,-49.31640625
-31.73828125,-54.6875,-49.31640625,-39.0625
-26.3671875,-52.24609375,-49.8046875,-29.78515625
-30.2734375,-48.33984375,-45.41015625,-30.2734375
-46.38671875,-48.828125,-43.9453125,-41.9921875
-60.546875,-55.6640625,-45.41015625,-49.31640625
-68.84765625,-62.01171875,-45.8984375,-48.828125
-64.453125,-57.12890625,-45.8984375,-49.31640625
-56.640625,-44.43359375,-41.50390625,-44.43359375
-54.19921875,-39.55078125,-40.52734375,-41.9921875
-53.22265625,-44.43359375,-45.41015625,-46.38671875
-56.15234375,-47.8515625,-46.875,-48.828125
-48.828125,-53.22265625,-45.8984375,-45.41015625
-40.0390625,-47.36328125,-47.8515625,-42.48046875
-38.57421875,-42.48046875,-46.875,-35.64453125
-37.59765625,-43.45703125,-45.8984375,-32.71484375
-40.52734375,-44.921875,-56.640625,-46.38671875
-41.9921875,-46.38671875,-55.6640625,-43.9453125
-34.66796875,-43.9453125,-48.33984375,-36.1328125
-27.34375,-40.0390625,-46.875,-41.015625
-33.69140625,-41.50390625,-45.8984375,-45.41015625
-45.8984375,-47.36328125,-50.78125,-52.24609375
-46.875,-52.24609375,-52.24609375,-49.31640625
-42.96875,-53.7109375,-48.828125,-38.0859375
-46.38671875,-48.828125,-52.24609375,-40.0390625
-48.828125,-44.921875,-49.31640625,-42.48046875
-57.12890625,-51.7578125,-49.8046875,-50.29296875
-66.40625,-61.03515625,-59.08203125,-61.03515625
-59.5703125,-59.08203125,-57.12890625,-56.15234375
-49.8046875,-50.78125,-46.38671875,-47.8515625
-49.31640625,-45.41015625,-41.50390625,-47.36328125
-59.08203125,-46.875,-50.78125,-56.15234375
-66.89453125,-45.41015625,-61.5234375,-63.96484375
-65.4296875,-46.38671875,-55.17578125,-62.5
-57.6171875,-47.36328125,-48.33984375,-60.05859375
-52.734375,-42.48046875,-48.33984375,-62.98828125
-50.78125,-38.0859375,-49.31640625,-62.98828125
-53.7109375,-43.9453125,-53.22265625,-60.546875
-51.7578125,-45.41015625,-55.17578125,-54.6875
-39.0625,-37.109375,-53.7109375,-48.33984375
-40.0390625,-36.1328125,-55.17578125,-52.24609375
-41.50390625,-36.1328125,-54.6875,-52.734375
-35.15625,-45.41015625,-53.22265625,-46.38671875
-31.73828125,-52.24609375,-50.29296875,-39.0625
-30.2734375,-42.48046875,-41.50390625,-36.62109375
-33.203125,-44.43359375,-44.921875,-42.48046875
-46.38671875,-57.12890625,-55.6640625,-56.15234375
-61.03515625,-60.546875,-61.03515625,-66.40625
-59.5703125,-56.640625,-54.6875,-59.08203125
-49.31640625,-55.17578125,-42.96875,-43.45703125
-56.15234375,-57.12890625,-44.43359375,-41.015625
-75.68359375,-58.10546875,-50.78125,-56.640625
-78.61328125,-56.640625,-48.33984375,-64.453125
-69.82421875,-55.6640625,-47.36328125,-60.05859375
-61.5234375,-49.31640625,-50.78125,-54.6875
-49.8046875,-48.33984375,-49.31640625,-47.36328125
-42.96875,-43.45703125,-43.45703125,-49.31640625
-55.17578125,-41.9921875,-47.36328125,-60.546875
-64.453125,-54.6875,-55.6640625,-71.2890625
-49.8046875,-48.828125,-45.41015625,-59.5703125
-38.57421875,-35.15625,-39.0625,-46.38671875
-44.43359375,-38.57421875,-42.48046875,-51.26953125
-47.8515625,-44.921875,-42.96875,-53.7109375
-47.8515625,-44.921875,-48.828125,-57.6171875
-53.7109375,-45.41015625,-49.8046875,-57.6171875
-53.7109375,-42.48046875,-42.96875,-49.8046875
-52.734375,-44.43359375,-42.96875,-51.26953125
-59.5703125,-48.33984375,-46.38671875,-58.59375
-63.96484375,-47.36328125,-39.0625,-58.59375
-50.29296875,-41.015625,-35.64453125,-48.33984375
-41.015625,-37.59765625,-37.109375,-40.52734375
-44.921875,-40.0390625,-38.57421875,-40.0390625
-46.38671875,-46.875,-44.43359375,-43.45703125
-47.36328125,-55.17578125,-49.31640625,-42.96875
-43.9453125,-50.29296875,-48.33984375,-41.9921875
-42.48046875,-41.9921875,-45.8984375,-36.62109375
-45.8984375,-41.9921875,-43.9453125,-39.55078125
-50.78125,-45.8984375,-46.38671875,-51.26953125
-51.7578125,-51.7578125,-47.8515625,-46.38671875
-43.9453125,-50.29296875,-42.48046875,-34.1796875
-39.55078125,-45.41015625,-41.50390625,-37.59765625
-40.52734375,-43.9453125,-46.875,-46.38671875
-37.109375,-47.8515625,-51.26953125,-45.41015625
-39.0625,-52.24609375,-52.24609375,-44.921875
-41.015625,-50.78125,-47.8515625,-42.48046875
-41.015625,-46.875,-44.921875,-37.109375
-38.57421875,-42.96875,-43.45703125,-41.015625
-38.57421875,-42.96875,-43.9453125,-50.29296875
-50.78125,-49.31640625,-50.78125,-57.12890625
-61.03515625,-54.19921875,-54.6875,-60.05859375
-58.59375,-47.36328125,-49.31640625,-61.03515625
-56.15234375,-41.015625,-47.8515625,-60.05859375
-57.6171875,-38.57421875,-50.29296875,-64.453125
-58.59375,-44.43359375,-54.19921875,-62.98828125
-52.24609375,-52.24609375,-52.734375,-51.7578125
-41.50390625,-39.55078125,-43.45703125,-39.55078125
-33.69140625,-40.52734375,-46.38671875,-35.15625
-36.1328125,-48.33984375,-46.38671875,-40.52734375
