TP9,AF7,AF8,TP10
-106.4453125,-105.95703125,-59.5703125,-52.734375
-72.75390625,-116.69921875,-49.8046875,-5.37109375
9.27734375,-20.99609375,-41.50390625,-33.203125
32.2265625,51.26953125,-45.41015625,-84.9609375
-40.52734375,-11.23046875,-48.828125,-84.47265625
-96.19140625,-101.07421875,-45.8984375,-34.1796875
-79.1015625,-127.44140625,-40.0390625,13.18359375
-0.48828125,-30.2734375,-37.109375,-9.765625
30.76171875,53.22265625,-38.0859375,-69.3359375
-34.1796875,1.46484375,-40.52734375,-76.171875
-94.7265625,-85.44921875,-42.96875,-27.34375
-93.75,-118.1640625,-46.38671875,19.53125
-15.625,-37.59765625,-44.921875,3.90625
28.3203125,36.1328125,-43.45703125,-60.05859375
-30.2734375,2.9296875,-47.8515625,-94.23828125
-96.6796875,-84.9609375,-45.41015625,-53.22265625
-99.12109375,-127.9296875,-41.50390625,-2.9296875
-19.53125,-51.26953125,-38.0859375,-17.578125
23.4375,38.57421875,-43.9453125,-72.75390625
-26.85546875,14.6484375,-60.05859375,-99.12109375
-94.7265625,-83.49609375,-56.15234375,-51.7578125
-106.4453125,-135.25390625,-41.015625,12.6953125
-26.85546875,-67.87109375,-38.57421875,9.27734375
26.3671875,32.2265625,-37.59765625,-44.43359375
-15.13671875,29.78515625,-41.015625,-82.03125
-92.7734375,-78.125,-45.8984375,-54.19921875
-119.62890625,-137.20703125,-44.921875,1.953125
-47.36328125,-75.1953125,-38.0859375,9.765625
27.34375,21.484375,-36.1328125,-39.0625
11.23046875,42.48046875,-43.45703125,-87.890625
-72.265625,-43.9453125,-54.6875,-69.82421875
-114.74609375,-124.0234375,-55.17578125,-13.18359375
-59.5703125,-102.5390625,-41.9921875,9.765625
15.13671875,2.9296875,-37.109375,-32.2265625
11.71875,37.109375,-43.9453125,-80.078125
-68.84765625,-50.78125,-51.7578125,-74.21875
-107.91015625,-134.27734375,-50.29296875,-26.3671875
-65.91796875,-116.69921875,-42.48046875,1.953125
9.27734375,-2.9296875,-42.48046875,-38.57421875
17.578125,52.734375,-45.8984375,-85.44921875
-69.3359375,-21.484375,-51.7578125,-78.125
-118.65234375,-105.95703125,-51.26953125,-22.94921875
-94.23828125,-101.5625,-44.43359375,7.8125
-15.13671875,-15.13671875,-41.50390625,-29.78515625
9.765625,34.1796875,-40.52734375,-84.9609375
-60.546875,-28.80859375,-53.22265625,-95.21484375
-93.75,-121.09375,-56.15234375,-34.1796875
-83.0078125,-145.01953125,-41.9921875,3.90625
-31.73828125,-53.22265625,-36.1328125,-53.22265625
0.48828125,29.78515625,-36.62109375,-105.46875
-59.08203125,-16.11328125,-35.15625,-99.12109375
-119.62890625,-112.3046875,-39.55078125,-50.29296875
-109.375,-144.04296875,-35.64453125,-1.46484375
-34.1796875,-41.50390625,-32.2265625,-20.99609375
5.37109375,49.31640625,-45.8984375,-79.58984375
-41.015625,-2.9296875,-49.8046875,-92.28515625
-104.98046875,-108.3984375,-44.921875,-42.48046875
-115.234375,-147.4609375,-43.9453125,2.44140625
-33.69140625,-60.05859375,-41.015625,-10.25390625
23.4375,27.34375,-46.38671875,-73.2421875
-26.85546875,8.7890625,-52.734375,-114.74609375
-106.93359375,-81.54296875,-51.26953125,-81.54296875
-122.55859375,-138.18359375,-48.33984375,-22.4609375
-43.45703125,-75.1953125,-41.015625,-17.08984375
11.23046875,19.53125,-46.38671875,-69.82421875
-20.99609375,35.64453125,-50.29296875,-103.02734375
-96.6796875,-59.08203125,-50.78125,-64.94140625
-122.55859375,-153.80859375,-51.7578125,-0.48828125
-48.33984375,-91.796875,-43.45703125,7.8125
8.30078125,24.90234375,-54.6875,-56.640625
-13.671875,28.3203125,-57.6171875,-100.09765625
-79.58984375,-64.94140625,-50.29296875,-67.87109375
-113.28125,-136.23046875,-44.43359375,-9.27734375
-61.03515625,-101.5625,-39.0625,5.37109375
4.39453125,0.0,-41.50390625,-51.7578125
-5.859375,36.62109375,-45.8984375,-100.09765625
-80.078125,-40.0390625,-49.31640625,-70.80078125
-112.3046875,-120.60546875,-45.8984375,-3.90625
-64.94140625,-110.3515625,-41.015625,11.23046875
9.765625,-8.30078125,-40.52734375,-43.9453125
14.6484375,50.29296875,-49.8046875,-102.5390625
-74.21875,-26.3671875,-57.12890625,-99.609375
-127.44140625,-121.58203125,-46.875,-40.52734375
-88.37890625,-125.0,-38.57421875,-2.44140625
-5.37109375,-16.6015625,-46.38671875,-40.52734375
5.37109375,47.8515625,-53.22265625,-90.8203125
-60.05859375,-26.85546875,-48.828125,-86.9140625
-109.375,-123.53515625,-47.8515625,-45.41015625
-101.5625,-137.6953125,-41.9921875,-1.953125
-21.484375,-27.34375,-38.0859375,-28.80859375
8.30078125,42.48046875,-41.50390625,-88.8671875
-62.98828125,-24.4140625,-49.8046875,-99.12109375
-120.1171875,-115.72265625,-53.7109375,-52.734375
-110.83984375,-144.53125,-43.45703125,5.859375
-14.16015625,-46.875,-34.1796875,-4.39453125
31.73828125,37.109375,-35.64453125,-60.546875
-35.15625,-6.34765625,-44.43359375,-77.1484375
-92.7734375,-94.7265625,-50.78125,-35.64453125
-88.37890625,-131.34765625,-44.921875,13.671875
-12.20703125,-49.8046875,-45.41015625,0.0
36.62109375,38.57421875,-51.7578125,-57.12890625
-5.37109375,32.71484375,-49.8046875,-80.078125
-77.63671875,-62.01171875,-45.8984375,-39.55078125
-104.4921875,-131.8359375,-41.50390625,4.8828125
-35.64453125,-60.546875,-39.55078125,-9.27734375
25.87890625,26.85546875,-43.9453125,-63.96484375
-13.671875,15.13671875,-56.15234375,-104.98046875
-95.703125,-74.70703125,-58.59375,-80.078125
-126.953125,-138.671875,-50.29296875,-24.4140625
-56.640625,-81.0546875,-44.43359375,-17.08984375
10.7421875,21.97265625,-46.38671875,-66.89453125
-9.27734375,35.15625,-49.8046875,-105.95703125
-85.9375,-60.05859375,-51.26953125,-75.68359375
-118.65234375,-130.37109375,-46.38671875,-6.8359375
-54.6875,-89.35546875,-41.50390625,19.04296875
7.32421875,1.46484375,-45.41015625,-30.2734375
-4.39453125,25.390625,-52.734375,-86.42578125
-69.82421875,-63.96484375,-50.29296875,-66.40625
-116.69921875,-143.06640625,-50.29296875,-13.18359375
-89.35546875,-113.28125,-58.59375,-0.48828125
-3.90625,-4.8828125,-50.29296875,-34.1796875
20.99609375,41.9921875,-45.41015625,-77.1484375
-56.640625,-35.64453125,-51.7578125,-81.54296875
-107.91015625,-121.58203125,-49.31640625,-32.71484375
-67.3828125,-120.1171875,-39.0625,5.859375
23.4375,-3.90625,-35.15625,-33.203125
32.71484375,50.29296875,-47.36328125,-88.37890625
-56.15234375,-41.50390625,-55.6640625,-84.9609375
-104.00390625,-120.60546875,-43.9453125,-30.2734375
-88.8671875,-122.55859375,-37.109375,10.7421875
-15.13671875,-29.78515625,-43.9453125,-26.3671875
17.578125,43.45703125,-49.8046875,-87.40234375
-49.8046875,-4.8828125,-53.7109375,-91.796875
-104.4921875,-95.703125,-54.6875,-39.55078125
-98.6328125,-125.9765625,-44.921875,12.6953125
-15.625,-41.015625,-44.43359375,-8.7890625
31.25,36.1328125,-47.36328125,-67.3828125
-30.76171875,10.25390625,-46.38671875,-88.8671875
-108.88671875,-75.68359375,-52.734375,-52.734375
-113.28125,-131.34765625,-47.36328125,2.44140625
-24.4140625,-55.6640625,-37.59765625,-4.39453125
24.4140625,35.64453125,-47.8515625,-69.82421875
-24.90234375,18.5546875,-53.22265625,-101.07421875
-95.703125,-77.63671875,-47.8515625,-57.12890625
-103.515625,-139.16015625,-41.50390625,0.0
-24.90234375,-76.171875,-40.0390625,-0.9765625
24.90234375,21.97265625,-51.26953125,-58.10546875
-7.32421875,28.80859375,-57.12890625,-86.9140625
-77.63671875,-69.3359375,-55.6640625,-52.734375
-108.3984375,-133.30078125,-56.640625,-5.37109375
-45.41015625,-74.70703125,-54.19921875,-7.32421875
21.97265625,9.765625,-47.36328125,-53.22265625
4.8828125,27.34375,-49.8046875,-94.23828125
-74.21875,-58.59375,-54.19921875,-79.58984375
-115.234375,-137.20703125,-47.8515625,-16.6015625
-59.08203125,-105.95703125,-40.0390625,2.9296875
10.25390625,-5.37109375,-39.55078125,-47.36328125
0.9765625,32.71484375,-41.50390625,-92.7734375
-77.63671875,-40.0390625,-48.33984375,-76.171875
-121.09375,-126.46484375,-49.31640625,-14.6484375
-70.80078125,-121.58203125,-45.41015625,4.39453125
8.7890625,4.8828125,-54.6875,-45.41015625
9.27734375,59.5703125,-56.640625,-90.8203125
-73.2421875,-35.64453125,-47.8515625,-79.58984375
-124.51171875,-127.44140625,-41.9921875,-32.71484375
-88.8671875,-131.8359375,-41.9921875,-4.39453125
6.34765625,-28.3203125,-41.50390625,-29.78515625
20.01953125,32.71484375,-43.9453125,-91.30859375
-58.10546875,-31.73828125,-49.8046875,-102.05078125
-105.95703125,-123.046875,-46.38671875,-45.41015625
-88.8671875,-146.97265625,-43.9453125,-1.953125
-9.765625,-54.19921875,-44.43359375,-30.2734375
22.4609375,32.2265625,-44.921875,-85.44921875
-45.8984375,-3.41796875,-49.31640625,-93.26171875
-104.98046875,-96.19140625,-48.33984375,-45.41015625
-94.23828125,-138.671875,-35.15625,11.71875
-14.16015625,-43.45703125,-34.66796875,-12.6953125
16.11328125,49.8046875,-54.19921875,-84.47265625
-37.109375,3.90625,-48.33984375,-94.7265625
-96.19140625,-91.796875,-37.59765625,-46.875
-104.00390625,-145.5078125,-40.0390625,0.48828125
-21.97265625,-73.2421875,-39.55078125,-9.27734375
23.92578125,20.01953125,-41.50390625,-69.82421875
-23.92578125,1.953125,-46.38671875,-100.5859375
-94.7265625,-85.9375,-51.7578125,-58.59375
-113.28125,-137.6953125,-46.875,-2.9296875
-38.0859375,-70.80078125,-39.55078125,-10.7421875
19.53125,21.484375,-38.57421875,-62.01171875
-20.01953125,31.25,-50.29296875,-97.16796875
-98.14453125,-62.98828125,-51.7578125,-56.640625
-113.28125,-140.13671875,-36.1328125,14.16015625
-41.9921875,-82.51953125,-34.1796875,9.765625
15.625,16.6015625,-36.1328125,-51.7578125
-4.8828125,33.69140625,-39.0625,-93.26171875
-76.171875,-60.05859375,-38.0859375,-64.453125
-107.91015625,-141.11328125,-36.62109375,-8.30078125
-48.33984375,-95.21484375,-36.62109375,11.23046875
24.90234375,14.6484375,-37.109375,-27.34375
8.7890625,34.66796875,-41.50390625,-79.1015625
-78.125,-47.36328125,-44.921875,-70.3125
-119.140625,-121.09375,-38.0859375,-7.8125
-65.91796875,-114.2578125,-30.2734375,17.08984375
12.20703125,-16.6015625,-37.59765625,-34.66796875
23.4375,40.52734375,-38.57421875,-83.49609375
-58.59375,-32.71484375,-39.0625,-78.125
-116.2109375,-116.2109375,-39.55078125,-27.83203125
-81.0546875,-111.81640625,-38.0859375,4.39453125
0.9765625,-17.578125,-37.109375,-36.62109375
20.01953125,42.96875,-39.0625,-91.30859375
-50.29296875,-11.23046875,-44.921875,-85.9375
-105.46875,-106.93359375,-47.36328125,-29.296875
-89.35546875,-136.23046875,-44.921875,12.6953125
-5.37109375,-36.1328125,-41.9921875,-22.4609375
21.97265625,40.0390625,-41.9921875,-81.54296875
-42.48046875,-3.41796875,-44.921875,-85.44921875
-98.14453125,-97.65625,-45.41015625,-36.1328125
-94.7265625,-143.5546875,-41.9921875,12.6953125
-6.34765625,-51.26953125,-42.96875,-4.39453125
36.62109375,45.8984375,-47.36328125,-62.98828125
-28.3203125,8.7890625,-52.24609375,-83.0078125
-89.84375,-92.28515625,-48.33984375,-36.62109375
-87.890625,-132.32421875,-42.48046875,12.6953125
-20.99609375,-49.31640625,-44.43359375,0.0
21.97265625,36.62109375,-48.828125,-54.6875
-24.4140625,16.6015625,-48.828125,-78.61328125
-99.12109375,-79.58984375,-47.8515625,-40.52734375
-119.62890625,-129.39453125,-48.828125,1.46484375
-43.9453125,-61.03515625,-41.9921875,-11.71875
28.80859375,27.83203125,-33.203125,-60.05859375
-12.6953125,26.3671875,-41.015625,-101.5625
-102.5390625,-71.77734375,-53.22265625,-80.56640625
-125.9765625,-135.7421875,-49.8046875,-12.6953125
-57.12890625,-84.47265625,-43.9453125,-5.37109375
5.859375,21.97265625,-45.41015625,-64.94140625
-21.484375,50.78125,-54.6875,-112.79296875
-103.02734375,-57.6171875,-61.03515625,-91.30859375
-134.765625,-149.4140625,-52.734375,-26.3671875
-69.3359375,-100.5859375,-48.828125,-11.23046875
9.27734375,10.7421875,-49.8046875,-50.78125
2.44140625,41.015625,-53.22265625,-88.37890625
-66.89453125,-45.41015625,-52.734375,-79.1015625
-103.515625,-125.0,-49.8046875,-23.4375
-59.5703125,-102.05078125,-48.33984375,10.7421875
19.04296875,3.41796875,-46.875,-32.71484375
28.3203125,43.45703125,-47.36328125,-85.44921875
-50.29296875,-25.390625,-49.8046875,-73.73046875
-105.95703125,-110.83984375,-50.29296875,-22.4609375
-73.73046875,-123.53515625,-42.96875,10.7421875
5.37109375,-15.625,-42.48046875,-24.4140625
13.671875,45.8984375,-60.546875,-87.890625
-50.29296875,-16.11328125,-63.96484375,-89.84375
-90.8203125,-99.609375,-54.19921875,-25.390625
-79.1015625,-118.1640625,-47.36328125,20.01953125
-1.46484375,-22.94921875,-41.9921875,-13.18359375
25.87890625,43.9453125,-46.875,-69.3359375
-44.43359375,-22.4609375,-52.24609375,-83.49609375
-105.95703125,-117.1875,-51.26953125,-43.45703125
-103.515625,-133.30078125,-44.921875,6.8359375
-20.5078125,-43.45703125,-41.9921875,-15.13671875
22.4609375,28.3203125,-50.29296875,-82.03125
-45.8984375,-3.41796875,-55.6640625,-104.00390625
-116.2109375,-88.37890625,-56.640625,-60.546875
-107.421875,-141.6015625,-45.8984375,-5.859375
-24.4140625,-62.98828125,-33.69140625,-12.6953125
17.08984375,35.64453125,-40.0390625,-72.75390625
-31.25,19.04296875,-50.29296875,-97.16796875
-99.12109375,-78.125,-43.9453125,-50.29296875
-118.1640625,-137.6953125,-40.52734375,7.32421875
-35.64453125,-64.453125,-38.57421875,-1.46484375
26.85546875,46.38671875,-35.15625,-56.640625
-9.27734375,37.109375,-41.015625,-84.47265625
-77.1484375,-69.3359375,-43.9453125,-50.29296875
-112.79296875,-132.32421875,-44.921875,5.37109375
-53.22265625,-76.171875,-46.38671875,-0.9765625
21.484375,23.4375,-41.9921875,-58.59375
-5.859375,33.203125,-45.8984375,-98.14453125
-85.9375,-62.01171875,-44.921875,-69.3359375
-118.1640625,-139.16015625,-41.9921875,-14.16015625
-60.05859375,-93.26171875,-41.9921875,-2.44140625
10.7421875,10.25390625,-41.50390625,-50.29296875
-2.44140625,34.66796875,-45.41015625,-96.19140625
-74.21875,-34.66796875,-51.7578125,-76.171875
-105.95703125,-107.421875,-45.8984375,-17.08984375
-60.546875,-102.05078125,-40.0390625,9.27734375
8.7890625,-4.39453125,-48.33984375,-37.109375
13.671875,45.8984375,-47.36328125,-87.890625
-52.734375,-25.87890625,-46.875,-76.66015625
-100.09765625,-109.86328125,-46.875,-20.01953125
-85.44921875,-105.95703125,-53.22265625,1.46484375
0.9765625,-0.48828125,-48.33984375,-39.0625
27.83203125,55.6640625,-43.9453125,-80.078125
-47.8515625,-17.08984375,-54.6875,-75.1953125
-100.09765625,-108.3984375,-49.8046875,-25.87890625
-83.0078125,-125.48828125,-39.55078125,11.23046875
2.9296875,-33.69140625,-39.55078125,-11.23046875
29.296875,45.41015625,-43.9453125,-72.265625
-39.55078125,-2.44140625,-50.78125,-86.42578125
-98.14453125,-100.5859375,-50.78125,-36.62109375
-90.8203125,-132.32421875,-38.0859375,12.20703125
-15.625,-38.0859375,-39.0625,-18.5546875
12.20703125,49.31640625,-48.33984375,-84.47265625
-42.96875,7.8125,-43.45703125,-88.37890625
-106.93359375,-85.9375,-38.57421875,-37.109375
-119.62890625,-138.671875,-36.62109375,6.8359375
-33.69140625,-65.4296875,-30.76171875,-9.765625
15.625,39.55078125,-34.1796875,-67.87109375
-35.64453125,20.5078125,-44.43359375,-91.30859375
-113.28125,-75.68359375,-53.22265625,-55.6640625
-126.46484375,-124.51171875,-49.31640625,-4.8828125
-34.1796875,-60.05859375,-37.109375,-3.90625
22.4609375,28.3203125,-38.0859375,-64.94140625
-9.765625,21.97265625,-47.8515625,-100.09765625
-88.8671875,-65.4296875,-50.78125,-60.546875
-115.234375,-129.8828125,-42.48046875,-7.32421875
-26.3671875,-68.359375,-44.921875,-0.9765625
41.9921875,30.2734375,-48.828125,-40.52734375
1.46484375,34.66796875,-41.9921875,-76.171875
-81.54296875,-55.6640625,-39.55078125,-51.7578125
-119.140625,-128.41796875,-39.0625,-8.7890625
-66.40625,-100.5859375,-36.1328125,1.953125
13.18359375,-4.8828125,-31.25,-36.62109375
11.23046875,27.34375,-27.83203125,-85.9375
-72.75390625,-68.359375,-31.73828125,-75.68359375
-126.953125,-149.4140625,-42.48046875,-29.296875
-78.125,-123.53515625,-40.52734375,-8.30078125
7.32421875,-18.06640625,-36.1328125,-49.31640625
5.37109375,31.25,-45.41015625,-106.4453125
-71.2890625,-44.43359375,-51.26953125,-92.28515625
-111.328125,-124.0234375,-47.36328125,-27.83203125
-78.125,-116.2109375,-42.96875,1.46484375
-4.8828125,-12.6953125,-40.0390625,-41.015625
8.7890625,42.48046875,-42.96875,-89.84375
-62.5,-34.66796875,-48.828125,-78.61328125
-116.69921875,-131.34765625,-50.29296875,-24.4140625
-90.8203125,-147.94921875,-40.0390625,12.20703125
2.9296875,-41.015625,-33.203125,-20.99609375
32.71484375,40.0390625,-38.57421875,-77.1484375
-41.9921875,-16.11328125,-43.45703125,-81.0546875
-106.4453125,-108.88671875,-41.015625,-27.34375
-95.703125,-136.71875,-33.203125,20.99609375
-7.8125,-47.36328125,-26.3671875,-2.9296875
29.296875,44.921875,-32.71484375,-69.82421875
-43.45703125,19.53125,-42.96875,-90.33203125
-108.3984375,-94.7265625,-40.0390625,-42.96875
-105.95703125,-153.3203125,-32.2265625,5.37109375
-28.80859375,-65.4296875,-33.203125,-11.71875
19.04296875,29.78515625,-41.50390625,-70.3125
-26.85546875,11.23046875,-49.8046875,-98.6328125
-94.7265625,-85.44921875,-50.29296875,-53.22265625
-113.76953125,-140.13671875,-44.921875,11.23046875
-36.1328125,-68.359375,-46.38671875,4.8828125
26.85546875,23.4375,-48.33984375,-56.15234375
-6.34765625,24.4140625,-51.7578125,-97.16796875
-88.37890625,-67.87109375,-54.19921875,-65.91796875
-110.3515625,-131.34765625,-47.8515625,-7.8125
-31.25,-77.63671875,-41.015625,-3.41796875
27.34375,8.30078125,-36.1328125,-57.12890625
-13.18359375,34.66796875,-48.33984375,-102.05078125
-91.796875,-46.875,-53.7109375,-70.3125
-114.2578125,-135.25390625,-41.015625,3.90625
-54.6875,-99.12109375,-36.1328125,13.671875
14.16015625,-1.46484375,-41.9921875,-51.7578125
2.9296875,22.4609375,-52.734375,-104.98046875
-71.77734375,-62.5,-55.17578125,-82.51953125
-111.328125,-139.16015625,-52.734375,-20.01953125
-58.59375,-101.07421875,-46.38671875,6.34765625
15.13671875,3.41796875,-45.8984375,-42.48046875
18.5546875,41.9921875,-52.24609375,-99.609375
-54.19921875,-20.99609375,-57.6171875,-85.9375
-106.4453125,-110.83984375,-54.6875,-18.06640625
-76.171875,-122.0703125,-48.33984375,13.18359375
7.32421875,-20.01953125,-50.29296875,-33.203125
15.13671875,41.50390625,-58.59375,-96.6796875
-67.3828125,-22.94921875,-62.5,-100.09765625
-111.81640625,-112.79296875,-51.7578125,-40.0390625
-78.61328125,-119.62890625,-39.55078125,6.34765625
2.44140625,-13.18359375,-31.25,-20.5078125
21.97265625,58.10546875,-35.64453125,-71.2890625
-44.921875,-6.8359375,-43.45703125,-77.63671875
-105.95703125,-105.95703125,-44.43359375,-28.80859375
-106.93359375,-125.9765625,-46.38671875,13.671875
-17.578125,-31.73828125,-42.96875,-17.578125
34.66796875,42.48046875,-41.9921875,-80.078125
-31.25,6.8359375,-51.26953125,-99.609375
-96.6796875,-81.54296875,-58.10546875,-57.6171875
-87.40234375,-131.8359375,-51.7578125,-6.34765625
0.0,-55.17578125,-41.50390625,-13.671875
44.43359375,35.64453125,-42.96875,-63.4765625
-4.39453125,16.6015625,-49.31640625,-89.84375
-73.2421875,-67.87109375,-54.19921875,-50.78125
-93.26171875,-129.39453125,-47.36328125,5.859375
-19.04296875,-70.3125,-44.43359375,-9.27734375
29.78515625,31.73828125,-49.31640625,-71.77734375
-7.8125,18.06640625,-45.8984375,-99.12109375
-82.51953125,-81.54296875,-42.96875,-60.05859375
-104.98046875,-139.16015625,-41.015625,0.48828125
-34.1796875,-85.44921875,-39.0625,4.39453125
27.83203125,14.16015625,-35.64453125,-45.41015625
0.0,37.59765625,-41.9921875,-84.9609375
-82.03125,-54.6875,-52.24609375,-67.3828125
-116.69921875,-136.23046875,-48.33984375,-11.23046875
-50.29296875,-87.40234375,-42.48046875,6.34765625
22.4609375,13.671875,-43.9453125,-43.9453125
1.953125,33.69140625,-52.24609375,-93.26171875
-76.66015625,-60.05859375,-59.08203125,-79.58984375
-114.2578125,-143.5546875,-53.22265625,-19.53125
-65.91796875,-116.2109375,-46.38671875,3.41796875
12.20703125,-15.13671875,-46.38671875,-43.9453125
8.30078125,32.71484375,-51.26953125,-90.33203125
-73.2421875,-41.9921875,-51.7578125,-80.078125
-120.60546875,-127.44140625,-52.734375,-36.1328125
-88.37890625,-119.62890625,-51.26953125,-9.27734375
-7.8125,-20.99609375,-50.29296875,-41.9921875
13.18359375,38.0859375,-48.828125,-89.84375
-62.01171875,-21.97265625,-54.6875,-90.33203125
-113.28125,-107.421875,-59.08203125,-37.59765625
-82.51953125,-125.48828125,-45.8984375,9.27734375
-6.34765625,-30.76171875,-41.50390625,-13.671875
21.97265625,41.015625,-48.33984375,-66.89453125
-46.875,-11.71875,-53.7109375,-79.1015625
-108.88671875,-106.4453125,-52.734375,-29.296875
-95.21484375,-134.27734375,-48.828125,14.6484375
-8.30078125,-34.1796875,-44.921875,-12.20703125
28.80859375,44.921875,-43.9453125,-72.265625
-34.66796875,-3.41796875,-45.8984375,-89.35546875
-94.7265625,-86.42578125,-44.921875,-46.875
-105.95703125,-123.046875,-56.640625,-9.27734375
-38.0859375,-50.29296875,-61.5234375,-29.78515625
17.578125,35.64453125,-52.734375,-83.0078125
-31.25,8.7890625,-53.7109375,-104.4921875
-107.91015625,-89.35546875,-51.7578125,-55.17578125
-118.1640625,-150.390625,-40.52734375,-0.9765625
-25.87890625,-87.890625,-35.64453125,0.48828125
47.8515625,21.97265625,-41.50390625,-45.8984375
-1.953125,26.85546875,-52.734375,-100.5859375
-90.8203125,-68.359375,-56.15234375,-80.56640625
-111.81640625,-130.37109375,-54.6875,-18.06640625
-37.109375,-56.15234375,-51.7578125,-5.37109375
23.4375,54.6875,-60.05859375,-62.98828125
-4.8828125,59.5703125,-69.82421875,-105.95703125
-82.51953125,-34.66796875,-71.77734375,-73.73046875
-105.46875,-101.07421875,-71.77734375,-16.11328125
-37.59765625,-50.29296875,-64.94140625,-6.8359375
16.11328125,38.57421875,-61.03515625,-62.5
1.953125,57.12890625,-64.94140625,-112.79296875
-75.68359375,-23.4375,-65.91796875,-94.23828125
-118.65234375,-99.12109375,-61.03515625,-38.0859375
-73.2421875,-85.9375,-58.10546875,-21.484375
5.859375,8.30078125,-59.08203125,-63.4765625
9.27734375,59.5703125,-59.5703125,-105.46875
-66.40625,-18.5546875,-58.10546875,-96.6796875
-101.5625,-103.515625,-52.734375,-36.62109375
-63.4765625,-91.30859375,-44.921875,4.39453125
12.20703125,11.71875,-45.41015625,-37.109375
29.78515625,62.01171875,-51.7578125,-96.6796875
-45.8984375,-19.04296875,-54.19921875,-93.26171875
-104.00390625,-110.83984375,-54.19921875,-35.64453125
-80.078125,-118.1640625,-44.921875,6.8359375
4.39453125,-8.30078125,-37.59765625,-24.4140625
22.4609375,62.98828125,-41.9921875,-86.42578125
-47.8515625,6.8359375,-44.43359375,-91.30859375
-96.19140625,-72.265625,-46.38671875,-33.69140625
-88.37890625,-116.69921875,-51.26953125,3.41796875
-4.8828125,-41.015625,-49.8046875,-30.2734375
29.296875,51.26953125,-57.12890625,-86.9140625
-41.50390625,9.27734375,-64.453125,-100.09765625
-104.4921875,-94.23828125,-57.6171875,-43.45703125
-100.09765625,-140.625,-52.734375,11.71875
-12.6953125,-58.10546875,-51.26953125,-2.9296875
36.1328125,30.2734375,-52.734375,-62.5
-18.06640625,9.27734375,-51.7578125,-84.47265625
-93.75,-84.47265625,-53.22265625,-39.55078125
-103.02734375,-135.25390625,-49.8046875,3.90625
-30.2734375,-50.29296875,-49.31640625,-8.7890625
20.01953125,47.36328125,-53.7109375,-61.5234375
-17.578125,30.2734375,-55.6640625,-94.23828125
-100.5859375,-57.12890625,-63.4765625,-70.80078125
-122.55859375,-119.62890625,-58.59375,-14.6484375
-41.015625,-79.1015625,-39.0625,-8.7890625
15.13671875,12.6953125,-39.55078125,-73.73046875
-13.671875,27.83203125,-41.50390625,-109.375
-87.40234375,-65.91796875,-42.48046875,-80.56640625
-115.234375,-148.4375,-42.48046875,-22.4609375
-57.6171875,-99.12109375,-43.45703125,-5.859375
11.23046875,14.16015625,-46.875,-51.26953125
8.30078125,44.43359375,-52.24609375,-82.51953125
-66.89453125,-42.96875,-53.7109375,-55.17578125
-109.375,-112.3046875,-47.36328125,-5.859375
-69.3359375,-79.1015625,-46.875,-2.44140625
10.7421875,6.8359375,-42.96875,-54.19921875
17.578125,40.52734375,-50.29296875,-100.09765625
-59.08203125,-32.2265625,-63.4765625,-79.1015625
-100.5859375,-110.3515625,-61.03515625,-20.01953125
-60.05859375,-103.02734375,-55.6640625,14.6484375
14.6484375,5.37109375,-53.22265625,-27.83203125
24.4140625,65.4296875,-53.22265625,-86.9140625
-50.78125,-9.27734375,-56.15234375,-85.44921875
-100.5859375,-100.09765625,-53.22265625,-40.52734375
-72.265625,-118.1640625,-48.33984375,0.9765625
-0.48828125,-15.625,-51.26953125,-32.71484375
24.90234375,53.22265625,-53.7109375,-93.75
-40.52734375,-14.6484375,-52.24609375,-93.75
-104.98046875,-102.5390625,-57.12890625,-41.9921875
-92.28515625,-125.48828125,-47.8515625,11.71875
-0.48828125,-30.2734375,-38.57421875,-4.39453125
37.59765625,49.8046875,-41.015625,-59.5703125
-31.73828125,-0.48828125,-44.921875,-80.56640625
-100.09765625,-96.6796875,-51.26953125,-47.36328125
-98.14453125,-133.30078125,-46.875,1.953125
-8.7890625,-37.59765625,-42.96875,-11.71875
25.390625,51.7578125,-46.38671875,-69.3359375
-37.109375,17.578125,-51.7578125,-94.7265625
-104.00390625,-82.03125,-47.36328125,-56.640625
-115.72265625,-131.34765625,-36.1328125,-1.46484375
-35.15625,-62.5,-35.64453125,-12.20703125
22.4609375,26.85546875,-40.0390625,-66.40625
-18.5546875,13.18359375,-41.015625,-86.42578125
-95.703125,-82.03125,-43.9453125,-49.31640625
-114.74609375,-135.7421875,-40.52734375,2.44140625
-39.55078125,-77.1484375,-37.59765625,9.27734375
24.4140625,27.34375,-38.0859375,-34.66796875
3.41796875,54.6875,-35.15625,-69.82421875
-81.54296875,-38.57421875,-41.9921875,-46.38671875
-114.74609375,-125.9765625,-41.9921875,4.8828125
-45.8984375,-94.7265625,-38.0859375,13.18359375
19.04296875,7.32421875,-43.45703125,-33.69140625
0.9765625,31.25,-47.36328125,-81.54296875
-78.125,-55.17578125,-52.734375,-62.98828125
-112.79296875,-133.30078125,-48.33984375,-4.8828125
-63.96484375,-107.421875,-43.45703125,4.39453125
7.8125,2.44140625,-47.36328125,-50.78125
5.37109375,41.9921875,-53.7109375,-104.00390625
-69.82421875,-37.59765625,-50.78125,-83.984375
-118.1640625,-104.98046875,-44.43359375,-17.08984375
-73.73046875,-84.47265625,-36.1328125,17.578125
15.13671875,-3.41796875,-27.83203125,-18.06640625
30.2734375,43.9453125,-32.2265625,-70.80078125
-44.43359375,-8.7890625,-43.9453125,-71.2890625
-94.23828125,-93.26171875,-41.015625,-16.6015625
-66.40625,-118.65234375,-31.73828125,26.3671875
18.06640625,-20.01953125,-32.2265625,-7.8125
38.0859375,51.26953125,-34.66796875,-71.77734375
-43.45703125,-5.859375,-39.55078125,-72.75390625
-97.16796875,-98.6328125,-38.0859375,-18.5546875
-92.7734375,-123.53515625,-36.1328125,17.08984375
-8.7890625,-16.6015625,-34.1796875,-14.16015625
37.109375,60.546875,-37.109375,-81.54296875
-32.2265625,-3.41796875,-42.48046875,-100.5859375
-100.09765625,-108.88671875,-41.50390625,-46.38671875
-107.91015625,-134.27734375,-47.36328125,0.48828125
-24.4140625,-42.96875,-47.8515625,-20.99609375
32.71484375,35.15625,-45.41015625,-72.265625
-15.13671875,14.16015625,-48.828125,-86.42578125
-88.8671875,-77.1484375,-45.8984375,-44.921875
-103.515625,-138.671875,-37.59765625,7.32421875
-31.25,-73.2421875,-39.55078125,-8.7890625
21.484375,22.94921875,-48.33984375,-69.82421875
-15.13671875,13.18359375,-52.24609375,-101.5625
-88.8671875,-78.125,-56.15234375,-67.87109375
-107.421875,-139.16015625,-49.31640625,-6.34765625
-44.43359375,-74.70703125,-48.828125,-12.6953125
10.25390625,31.25,-51.26953125,-65.91796875
0.9765625,27.83203125,-48.33984375,-89.84375
-74.70703125,-70.80078125,-52.24609375,-57.6171875
-115.234375,-135.25390625,-43.9453125,2.9296875
-45.41015625,-87.890625,-37.109375,11.71875
14.16015625,1.46484375,-42.48046875,-43.9453125
-2.44140625,27.83203125,-49.31640625,-86.42578125
-77.63671875,-43.9453125,-55.6640625,-67.3828125
-123.53515625,-113.76953125,-48.828125,-5.859375
-63.96484375,-89.35546875,-38.57421875,11.71875
13.18359375,-3.41796875,-38.57421875,-50.78125
3.90625,38.57421875,-52.24609375,-113.76953125
-67.3828125,-32.2265625,-55.17578125,-94.23828125
-104.98046875,-124.51171875,-44.43359375,-19.04296875
-70.80078125,-127.9296875,-40.0390625,12.20703125
4.39453125,-18.5546875,-40.0390625,-34.66796875
22.94921875,40.52734375,-46.38671875,-88.8671875
-45.8984375,-22.4609375,-44.43359375,-82.51953125
-117.1875,-104.4921875,-46.875,-42.48046875
-109.86328125,-118.1640625,-54.19921875,-24.4140625
-19.53125,-28.80859375,-48.33984375,-51.26953125
4.8828125,22.94921875,-48.828125,-100.09765625
-76.171875,-28.3203125,-61.5234375,-114.74609375
-126.953125,-104.4921875,-58.10546875,-62.98828125
-107.421875,-140.13671875,-41.9921875,-3.90625
-20.5078125,-44.921875,-33.69140625,-24.4140625
22.94921875,37.59765625,-36.1328125,-83.0078125
-32.2265625,-7.32421875,-46.38671875,-90.8203125
-94.23828125,-100.5859375,-48.33984375,-41.50390625
-104.00390625,-141.6015625,-44.43359375,1.46484375
-20.01953125,-52.734375,-40.52734375,-14.16015625
27.83203125,35.15625,-41.9921875,-72.265625
-30.2734375,9.27734375,-44.43359375,-99.12109375
-97.65625,-81.54296875,-43.9453125,-55.17578125
-111.81640625,-126.953125,-51.26953125,-8.7890625
-35.64453125,-55.17578125,-48.33984375,-21.484375
26.85546875,20.99609375,-38.57421875,-64.453125
-10.25390625,12.20703125,-43.9453125,-91.30859375
-86.42578125,-75.1953125,-44.921875,-52.24609375
-113.28125,-138.18359375,-41.9921875,4.39453125
-39.55078125,-76.171875,-36.62109375,-8.30078125
13.671875,16.11328125,-38.0859375,-67.3828125
-14.16015625,29.78515625,-41.9921875,-99.12109375
-86.42578125,-55.17578125,-44.43359375,-68.84765625
-116.2109375,-133.7890625,-40.52734375,-11.23046875
-50.29296875,-81.54296875,-37.59765625,1.46484375
7.8125,24.90234375,-46.38671875,-46.875
-7.32421875,33.203125,-51.26953125,-86.9140625
-76.66015625,-67.3828125,-50.78125,-72.75390625
-122.0703125,-146.484375,-55.6640625,-32.2265625
-70.80078125,-110.83984375,-53.7109375,-17.578125
11.71875,-4.8828125,-50.29296875,-61.03515625
9.765625,42.96875,-60.546875,-104.4921875
-59.08203125,-28.3203125,-59.08203125,-77.63671875
-109.375,-115.234375,-55.6640625,-13.18359375
-72.75390625,-117.1875,-49.8046875,16.6015625
18.5546875,-10.25390625,-40.52734375,-29.296875
22.4609375,59.5703125,-46.38671875,-80.56640625
-52.734375,-20.99609375,-55.17578125,-78.125
-97.16796875,-115.234375,-55.17578125,-29.296875
-80.56640625,-127.9296875,-51.7578125,12.20703125
3.41796875,-34.66796875,-50.78125,-22.4609375
32.71484375,48.33984375,-51.26953125,-91.796875
-41.9921875,-13.671875,-55.17578125,-101.07421875
-108.3984375,-109.375,-57.6171875,-45.41015625
-104.00390625,-131.34765625,-50.29296875,-0.9765625
-14.6484375,-40.52734375,-41.9921875,-21.97265625
26.85546875,39.55078125,-47.36328125,-75.1953125
-47.36328125,3.90625,-56.640625,-92.7734375
-115.72265625,-80.56640625,-52.734375,-50.29296875
-110.3515625,-132.32421875,-39.55078125,0.0
-22.4609375,-49.31640625,-36.62109375,-16.11328125
21.484375,34.66796875,-46.38671875,-69.82421875
-35.15625,-2.9296875,-56.15234375,-91.796875
-105.46875,-95.21484375,-53.22265625,-57.12890625
-116.2109375,-145.5078125,-49.31640625,-7.32421875
-31.73828125,-78.61328125,-51.26953125,-16.11328125
24.90234375,21.97265625,-50.29296875,-76.66015625
-28.3203125,13.671875,-54.19921875,-99.609375
-108.88671875,-88.8671875,-53.7109375,-56.640625
-118.65234375,-140.13671875,-41.50390625,3.41796875
-39.55078125,-71.77734375,-32.71484375,4.8828125
14.16015625,18.5546875,-39.0625,-55.17578125
-12.6953125,22.4609375,-46.875,-88.8671875
-89.84375,-53.22265625,-52.24609375,-64.453125
-124.51171875,-128.41796875,-53.22265625,-13.671875
-48.828125,-98.6328125,-44.43359375,-0.48828125
16.6015625,6.34765625,-45.8984375,-47.8515625
-2.9296875,33.69140625,-55.17578125,-97.16796875
-79.1015625,-47.36328125,-57.6171875,-85.44921875
-121.58203125,-126.953125,-55.17578125,-28.80859375
-53.22265625,-98.6328125,-44.921875,9.765625
11.71875,9.27734375,-35.15625,-39.55078125
-10.25390625,45.8984375,-55.6640625,-115.234375
-74.21875,-42.48046875,-57.6171875,-90.8203125
-125.48828125,-123.53515625,-47.36328125,-35.15625
-93.75,-104.00390625,-53.22265625,-7.32421875
-5.37109375,-20.5078125,-41.015625,-41.9921875
6.34765625,23.92578125,-42.48046875,-104.4921875
-71.2890625,-41.9921875,-54.19921875,-95.21484375
-121.58203125,-120.1171875,-48.828125,-31.73828125
-90.8203125,-119.62890625,-37.59765625,11.23046875
-10.7421875,-22.94921875,-34.66796875,-21.97265625
17.578125,39.55078125,-35.15625,-75.68359375
-54.19921875,-20.01953125,-37.59765625,-79.58984375
-104.98046875,-107.421875,-35.64453125,-20.99609375
-75.68359375,-138.18359375,-33.203125,26.3671875
3.41796875,-30.76171875,-41.9921875,-18.06640625
29.78515625,49.31640625,-50.78125,-84.9609375
-34.1796875,-18.06640625,-50.29296875,-87.890625
-95.21484375,-106.4453125,-41.50390625,-36.62109375
-94.7265625,-135.25390625,-36.1328125,10.25390625
-21.484375,-55.6640625,-43.9453125,-20.99609375
14.16015625,25.87890625,-54.6875,-96.6796875
-37.59765625,4.39453125,-53.7109375,-115.72265625
-102.05078125,-93.26171875,-48.828125,-58.10546875
-112.79296875,-138.671875,-46.875,5.37109375
-33.69140625,-62.5,-46.875,-9.27734375
13.18359375,25.87890625,-57.12890625,-73.2421875
-26.85546875,21.97265625,-58.59375,-100.09765625
-93.75,-75.1953125,-48.828125,-54.19921875
-118.1640625,-135.7421875,-44.43359375,2.9296875
-43.9453125,-66.89453125,-43.45703125,2.9296875
8.7890625,20.99609375,-44.921875,-51.7578125
-18.5546875,15.625,-43.45703125,-90.8203125
-92.28515625,-76.171875,-41.9921875,-63.96484375
-125.9765625,-152.34375,-40.52734375,-12.20703125
-55.6640625,-108.3984375,-44.921875,-5.37109375
18.5546875,10.25390625,-44.43359375,-49.8046875
3.41796875,46.875,-43.45703125,-85.9375
-80.078125,-34.1796875,-48.33984375,-69.82421875
-116.69921875,-112.79296875,-43.45703125,-13.18359375
-60.546875,-106.4453125,-42.96875,5.37109375
13.671875,-10.7421875,-45.41015625,-49.8046875
18.5546875,36.1328125,-52.24609375,-97.16796875
-49.31640625,-42.48046875,-58.59375,-77.63671875
-97.65625,-126.953125,-51.7578125,-15.625
-70.3125,-109.375,-47.8515625,8.7890625
0.48828125,-10.25390625,-47.36328125,-41.50390625
4.8828125,27.83203125,-43.9453125,-93.26171875
-67.87109375,-37.109375,-42.96875,-75.68359375
-117.1875,-120.60546875,-43.45703125,-27.34375
-94.23828125,-131.8359375,-46.38671875,-0.48828125
-11.23046875,-36.62109375,-40.0390625,-26.85546875
9.27734375,30.2734375,-40.0390625,-73.73046875
-59.5703125,-18.5546875,-46.38671875,-75.1953125
-110.83984375,-105.95703125,-49.8046875,-28.80859375
-92.7734375,-134.27734375,-43.45703125,17.08984375
-4.39453125,-41.9921875,-33.203125,-7.32421875
37.59765625,40.52734375,-35.15625,-67.87109375
-21.97265625,-5.37109375,-41.50390625,-86.42578125
-88.37890625,-105.95703125,-40.0390625,-45.8984375
-90.8203125,-135.7421875,-34.66796875,4.39453125
-8.30078125,-26.3671875,-40.52734375,-8.7890625
31.73828125,49.31640625,-47.36328125,-61.5234375
-16.6015625,-3.41796875,-43.9453125,-75.1953125
-84.47265625,-92.7734375,-40.52734375,-37.109375
-99.12109375,-139.16015625,-32.71484375,13.18359375
-19.04296875,-63.4765625,-32.2265625,-3.41796875
25.390625,22.4609375,-37.59765625,-63.4765625
-15.13671875,9.765625,-39.55078125,-81.0546875
-85.9375,-82.51953125,-44.921875,-47.36328125
-109.86328125,-150.390625,-42.48046875,2.44140625
-34.1796875,-88.8671875,-35.64453125,1.953125
23.92578125,21.484375,-41.015625,-58.10546875
-6.8359375,37.59765625,-52.24609375,-95.21484375
-80.56640625,-67.3828125,-45.8984375,-56.640625
-115.72265625,-143.5546875,-33.69140625,3.90625
-54.19921875,-90.8203125,-29.78515625,11.23046875
17.08984375,9.765625,-32.2265625,-48.828125
-0.9765625,27.83203125,-37.59765625,-96.6796875
-83.984375,-63.4765625,-40.52734375,-71.77734375
-125.48828125,-132.32421875,-42.48046875,-20.99609375
-66.40625,-98.14453125,-41.50390625,-3.41796875
15.625,-1.953125,-42.48046875,-41.9921875
2.44140625,23.92578125,-47.36328125,-85.44921875
-73.73046875,-43.9453125,-54.6875,-70.3125
-115.234375,-123.046875,-57.6171875,-27.83203125
-82.03125,-131.34765625,-47.8515625,-6.34765625
5.859375,-17.08984375,-42.96875,-42.48046875
7.32421875,39.55078125,-55.17578125,-100.09765625
-72.75390625,-33.69140625,-58.59375,-96.19140625
-115.72265625,-107.421875,-55.17578125,-34.66796875
-86.9140625,-117.1875,-54.6875,1.46484375
-3.41796875,-28.3203125,-55.6640625,-31.73828125
23.92578125,47.36328125,-53.22265625,-81.0546875
-47.8515625,-12.6953125,-51.7578125,-76.171875
-104.00390625,-106.4453125,-51.26953125,-24.4140625
-92.28515625,-121.58203125,-44.43359375,3.90625
-13.671875,-32.71484375,-44.43359375,-32.2265625
30.2734375,36.1328125,-44.921875,-82.03125
-37.109375,-6.34765625,-51.26953125,-92.28515625
-101.07421875,-92.28515625,-57.6171875,-48.828125
-93.75,-125.48828125,-48.33984375,4.39453125
-13.671875,-49.31640625,-44.43359375,-15.13671875
30.2734375,37.59765625,-48.33984375,-79.1015625
-32.71484375,7.32421875,-55.6640625,-105.95703125
-112.3046875,-90.33203125,-54.19921875,-63.4765625
-117.1875,-140.13671875,-47.8515625,-7.8125
-24.4140625,-64.453125,-45.41015625,-14.16015625
34.1796875,39.0625,-41.9921875,-60.546875
-21.97265625,13.671875,-39.55078125,-91.796875
-115.72265625,-101.5625,-43.9453125,-76.171875
-131.8359375,-154.296875,-49.8046875,-21.97265625
-53.22265625,-91.30859375,-45.41015625,-20.01953125
4.8828125,-6.34765625,-37.59765625,-77.1484375
-23.4375,8.7890625,-38.0859375,-104.98046875
-91.30859375,-74.70703125,-38.57421875,-66.40625
-117.67578125,-146.484375,-38.0859375,-11.23046875
-51.26953125,-91.796875,-36.62109375,-0.9765625
13.671875,6.34765625,-39.0625,-46.875
-10.25390625,19.04296875,-45.8984375,-92.28515625
-84.9609375,-64.453125,-44.921875,-64.453125
-118.1640625,-140.625,-41.9921875,-1.953125
-59.5703125,-113.28125,-40.52734375,8.7890625
13.671875,-5.37109375,-41.9921875,-45.8984375
12.20703125,30.76171875,-43.45703125,-93.26171875
-61.03515625,-54.19921875,-45.41015625,-78.61328125
-111.81640625,-140.625,-43.45703125,-21.484375
-77.1484375,-128.41796875,-39.55078125,6.8359375
3.41796875,-20.99609375,-38.0859375,-41.015625
6.8359375,32.71484375,-42.48046875,-92.7734375
-62.5,-39.0625,-48.828125,-80.078125
-111.81640625,-123.53515625,-45.41015625,-28.3203125
-86.42578125,-118.1640625,-40.52734375,2.44140625
1.46484375,-18.06640625,-41.50390625,-32.2265625
19.53125,48.33984375,-47.36328125,-93.26171875
-48.828125,-6.8359375,-53.22265625,-96.6796875
-104.00390625,-108.3984375,-49.8046875,-38.0859375
-89.35546875,-131.34765625,-41.50390625,9.765625
-1.46484375,-27.83203125,-40.0390625,-20.01953125
31.73828125,41.9921875,-41.015625,-72.265625
-37.109375,-10.7421875,-49.31640625,-78.125
-103.02734375,-95.21484375,-52.734375,-37.59765625
-103.02734375,-132.32421875,-48.33984375,2.44140625
-15.625,-49.31640625,-49.8046875,-21.97265625
28.3203125,41.50390625,-50.78125,-75.1953125
-24.90234375,11.71875,-60.05859375,-95.703125
-82.51953125,-83.49609375,-60.546875,-62.01171875
-96.19140625,-132.32421875,-49.31640625,-8.7890625
-20.99609375,-61.5234375,-44.921875,-13.671875
40.0390625,29.78515625,-46.875,-73.73046875
-6.34765625,17.08984375,-49.8046875,-103.02734375
-82.03125,-77.63671875,-54.19921875,-65.91796875
-104.00390625,-144.04296875,-50.29296875,-13.18359375
-37.109375,-77.63671875,-49.31640625,-16.11328125
17.08984375,17.08984375,-54.19921875,-65.91796875
-5.859375,15.13671875,-47.36328125,-90.8203125
-77.63671875,-58.59375,-47.36328125,-62.5
-113.28125,-117.67578125,-51.26953125,-0.48828125
-54.6875,-83.49609375,-44.43359375,10.25390625
10.25390625,7.8125,-44.921875,-49.31640625
-4.39453125,34.1796875,-52.734375,-81.54296875
-82.03125,-52.734375,-56.640625,-57.12890625
-120.1171875,-127.44140625,-46.38671875,-5.859375
-62.01171875,-92.7734375,-32.71484375,11.71875
11.71875,2.9296875,-35.15625,-45.41015625
-0.9765625,39.55078125,-45.8984375,-104.98046875
-73.2421875,-39.0625,-44.43359375,-83.49609375
-109.375,-125.48828125,-35.15625,-17.578125
-63.96484375,-101.5625,-32.71484375,12.20703125
12.6953125,16.11328125,-37.59765625,-25.87890625
25.87890625,56.15234375,-39.0625,-70.80078125
-41.50390625,-27.34375,-41.9921875,-60.546875
-87.40234375,-117.67578125,-45.41015625,-17.578125
-63.96484375,-124.0234375,-41.9921875,3.90625
15.625,-19.04296875,-41.015625,-41.50390625
34.1796875,45.41015625,-47.8515625,-94.7265625
-41.9921875,-20.01953125,-55.17578125,-86.9140625
-100.5859375,-109.375,-52.24609375,-27.34375
-88.8671875,-125.9765625,-40.52734375,18.06640625
1.953125,-23.92578125,-34.1796875,-15.13671875
36.62109375,56.15234375,-37.59765625,-79.1015625
-36.1328125,0.48828125,-43.9453125,-94.7265625
-98.6328125,-107.421875,-41.50390625,-47.36328125
-93.75,-146.97265625,-37.59765625,4.39453125
-20.99609375,-46.38671875,-43.9453125,-26.3671875
9.765625,49.8046875,-47.8515625,-85.44921875
-44.43359375,9.27734375,-45.8984375,-97.65625
-107.91015625,-93.26171875,-43.45703125,-49.8046875
-110.83984375,-138.671875,-41.9921875,7.32421875
-28.80859375,-52.734375,-37.109375,-3.41796875
26.3671875,37.59765625,-36.62109375,-62.5
-16.11328125,24.4140625,-40.0390625,-94.7265625
-101.07421875,-66.40625,-44.921875,-59.08203125
-107.421875,-126.953125,-42.48046875,-7.8125
-26.3671875,-65.91796875,-34.1796875,-13.18359375
11.71875,24.90234375,-42.96875,-68.84765625
-3.90625,19.53125,-54.19921875,-97.65625
-69.82421875,-74.21875,-54.6875,-55.6640625
-112.3046875,-136.71875,-46.875,12.20703125
-50.78125,-81.54296875,-41.50390625,10.25390625
15.13671875,24.90234375,-41.015625,-67.87109375
5.859375,30.76171875,-39.0625,-94.23828125
-72.75390625,-61.03515625,-38.57421875,-59.5703125
-116.69921875,-134.27734375,-35.64453125,-13.18359375
-59.08203125,-93.75,-38.0859375,-0.48828125
12.6953125,1.953125,-37.59765625,-42.48046875
0.9765625,20.5078125,-38.57421875,-77.1484375
-82.03125,-52.734375,-47.8515625,-62.01171875
-126.953125,-128.90625,-44.921875,-13.671875
-73.73046875,-111.81640625,-35.64453125,2.9296875
11.23046875,-4.39453125,-35.64453125,-40.0390625
14.6484375,42.48046875,-43.9453125,-83.984375
-56.640625,-34.1796875,-52.734375,-73.2421875
-108.88671875,-123.53515625,-50.78125,-22.4609375
-82.03125,-123.53515625,-40.0390625,13.671875
5.859375,-19.53125,-38.57421875,-20.5078125
19.04296875,48.33984375,-45.8984375,-77.1484375
-49.31640625,-19.53125,-51.26953125,-83.984375
-97.65625,-109.86328125,-51.7578125,-31.25
-88.8671875,-123.046875,-46.875,14.6484375
0.0,-33.69140625,-45.41015625,-19.53125
31.25,43.9453125,-49.31640625,-78.125
-39.0625,-3.41796875,-51.26953125,-82.51953125
-92.7734375,-99.12109375,-49.31640625,-36.62109375
-80.078125,-137.20703125,-47.36328125,6.8359375
-3.90625,-49.8046875,-46.38671875,-14.6484375
35.64453125,33.69140625,-47.36328125,-72.265625
-19.04296875,0.9765625,-47.36328125,-88.37890625
-91.796875,-81.54296875,-44.43359375,-45.41015625
-105.46875,-136.71875,-41.015625,0.9765625
-29.296875,-65.4296875,-39.0625,-12.6953125
25.390625,37.109375,-41.015625,-64.94140625
-19.53125,24.90234375,-48.33984375,-89.35546875
-97.16796875,-66.89453125,-54.19921875,-50.29296875
-114.2578125,-134.27734375,-45.8984375,6.34765625
-39.55078125,-78.125,-41.9921875,-5.37109375
18.06640625,16.6015625,-48.828125,-69.3359375
-5.37109375,20.99609375,-50.29296875,-103.02734375
-86.9140625,-63.96484375,-46.38671875,-61.03515625
-124.0234375,-132.8125,-39.55078125,-4.8828125
-47.36328125,-83.0078125,-33.203125,-4.8828125
20.5078125,28.80859375,-38.57421875,-54.19921875
-11.23046875,43.45703125,-48.828125,-95.21484375
-90.8203125,-63.96484375,-51.26953125,-70.3125
-120.1171875,-148.92578125,-44.43359375,-3.90625
-57.6171875,-104.4921875,-40.52734375,16.6015625
17.578125,0.48828125,-40.52734375,-34.66796875
10.7421875,32.2265625,-37.59765625,-82.51953125
-71.77734375,-41.9921875,-43.9453125,-72.265625
-113.28125,-117.67578125,-42.96875,-17.578125
-62.01171875,-100.5859375,-41.50390625,8.7890625
16.11328125,-7.8125,-45.41015625,-38.57421875
16.11328125,48.33984375,-44.43359375,-86.9140625
-63.96484375,-14.16015625,-48.33984375,-77.1484375
-106.4453125,-108.3984375,-45.41015625,-22.94921875
-70.3125,-109.86328125,-36.1328125,20.99609375
3.41796875,-4.8828125,-40.52734375,-21.97265625
10.7421875,46.38671875,-55.17578125,-96.19140625
-51.26953125,-29.296875,-59.5703125,-87.40234375
-105.95703125,-112.3046875,-52.734375,-32.71484375
-106.93359375,-128.41796875,-46.38671875,-5.859375
-27.34375,-29.296875,-42.96875,-39.55078125
10.25390625,47.8515625,-46.875,-91.796875
-53.22265625,-13.671875,-46.38671875,-97.16796875
-118.1640625,-98.6328125,-42.48046875,-52.734375
-121.58203125,-127.9296875,-41.015625,-7.8125
-30.2734375,-57.12890625,-31.73828125,-21.97265625
18.06640625,19.04296875,-36.1328125,-73.73046875
-39.55078125,-14.6484375,-50.29296875,-86.42578125
-103.02734375,-105.95703125,-51.26953125,-38.57421875
-110.3515625,-145.5078125,-40.52734375,15.625
-28.3203125,-67.87109375,-34.66796875,2.44140625
17.578125,23.4375,-41.9921875,-59.08203125
-33.203125,14.16015625,-44.921875,-86.9140625
-107.91015625,-87.890625,-46.875,-45.8984375
-123.046875,-154.78515625,-49.8046875,8.7890625
-38.57421875,-71.77734375,-45.41015625,-6.34765625
12.6953125,23.4375,-43.45703125,-68.84765625
-20.5078125,7.32421875,-53.22265625,-108.3984375
-94.23828125,-78.125,-63.96484375,-78.61328125
-129.8828125,-141.11328125,-57.12890625,-12.20703125
-62.01171875,-91.30859375,-51.7578125,-6.8359375
7.32421875,15.625,-52.734375,-59.08203125
-10.7421875,36.1328125,-54.19921875,-100.09765625
-93.75,-59.08203125,-56.15234375,-80.56640625
-130.859375,-139.16015625,-53.7109375,-22.4609375
-70.3125,-102.05078125,-47.36328125,-3.90625
-3.90625,6.34765625,-46.38671875,-52.24609375
-10.7421875,49.31640625,-55.6640625,-100.5859375
-83.984375,-36.1328125,-54.19921875,-81.54296875
-125.9765625,-132.32421875,-47.36328125,-20.01953125
-82.51953125,-111.328125,-46.875,1.46484375
-1.46484375,-6.34765625,-48.33984375,-38.0859375
8.7890625,29.78515625,-47.8515625,-83.49609375
-62.01171875,-35.64453125,-52.24609375,-72.75390625
-108.88671875,-110.3515625,-52.734375,-16.6015625
-80.078125,-113.76953125,-44.921875,12.6953125
3.90625,-16.6015625,-43.9453125,-26.85546875
19.04296875,38.57421875,-48.33984375,-78.125
-49.8046875,-23.92578125,-46.875,-71.77734375
-98.14453125,-106.4453125,-46.38671875,-27.83203125
-84.47265625,-125.9765625,-44.43359375,7.32421875
1.953125,-39.55078125,-39.55078125,-23.92578125
34.1796875,42.48046875,-46.38671875,-83.0078125
-43.9453125,-4.8828125,-52.734375,-84.9609375
-101.07421875,-105.95703125,-52.734375,-33.69140625
-94.23828125,-131.8359375,-44.921875,10.7421875
-24.4140625,-38.57421875,-37.109375,-3.41796875
17.08984375,39.55078125,-42.96875,-61.5234375
-35.15625,4.39453125,-52.24609375,-86.9140625
-98.6328125,-88.8671875,-47.36328125,-50.78125
-102.05078125,-143.06640625,-40.52734375,-16.6015625
-22.4609375,-54.19921875,-38.0859375,-26.3671875
25.390625,33.203125,-41.9921875,-79.58984375
-26.3671875,5.37109375,-55.6640625,-119.140625
-97.16796875,-71.77734375,-63.4765625,-83.0078125
-105.95703125,-136.71875,-56.15234375,-20.99609375
-30.76171875,-79.58984375,-51.26953125,-20.99609375
28.3203125,26.85546875,-54.6875,-75.68359375
-4.8828125,26.85546875,-54.19921875,-103.02734375
-85.9375,-70.80078125,-54.6875,-69.3359375
-117.67578125,-129.39453125,-54.19921875,-13.671875
-47.36328125,-71.77734375,-43.9453125,-1.46484375
18.5546875,24.4140625,-41.9921875,-53.22265625
1.953125,43.45703125,-51.7578125,-96.6796875
-68.359375,-49.31640625,-58.10546875,-63.4765625
-111.328125,-131.34765625,-48.33984375,-3.41796875
-69.3359375,-103.02734375,-41.50390625,-4.39453125
3.41796875,-11.23046875,-42.48046875,-52.734375
-2.44140625,23.92578125,-47.36328125,-89.35546875
-83.0078125,-57.12890625,-47.36328125,-70.80078125
-125.48828125,-145.01953125,-41.015625,-8.30078125
-82.03125,-122.55859375,-41.015625,12.6953125
-1.46484375,-7.32421875,-41.015625,-27.34375
0.48828125,37.109375,-42.96875,-78.125
-68.84765625,-43.45703125,-43.9453125,-68.84765625
-108.3984375,-117.67578125,-38.57421875,-10.7421875
-80.56640625,-114.2578125,-38.57421875,16.11328125
-1.953125,-18.06640625,-40.52734375,-18.06640625
15.625,33.203125,-38.57421875,-72.75390625
-57.6171875,-36.62109375,-43.45703125,-78.61328125
-108.3984375,-125.48828125,-43.9453125,-41.015625
-89.35546875,-142.08984375,-39.55078125,-6.34765625
-5.37109375,-35.64453125,-34.1796875,-31.73828125
27.83203125,37.109375,-38.0859375,-90.8203125
-42.48046875,-19.04296875,-46.875,-98.14453125
-109.375,-109.375,-48.828125,-53.7109375
-102.5390625,-139.6484375,-47.36328125,-13.671875
-7.32421875,-38.0859375,-43.45703125,-26.3671875
32.71484375,56.15234375,-49.8046875,-82.03125
-33.69140625,8.7890625,-56.15234375,-102.05078125
-93.75,-95.703125,-54.6875,-43.9453125
-97.65625,-145.5078125,-48.33984375,13.18359375
-24.90234375,-71.2890625,-41.50390625,-5.859375
23.4375,26.85546875,-42.48046875,-62.98828125
-20.5078125,14.6484375,-47.8515625,-84.47265625
-92.28515625,-76.66015625,-46.875,-43.45703125
-115.234375,-132.32421875,-45.41015625,8.7890625
-45.41015625,-67.3828125,-43.9453125,-1.46484375
20.01953125,25.390625,-40.0390625,-63.4765625
-14.6484375,26.85546875,-41.9921875,-95.703125
-90.8203125,-56.640625,-44.43359375,-65.91796875
-105.95703125,-138.18359375,-40.52734375,-7.8125
-33.203125,-93.26171875,-38.0859375,1.953125
26.3671875,9.765625,-41.50390625,-48.33984375
3.90625,33.203125,-45.8984375,-87.40234375
-65.4296875,-45.8984375,-45.41015625,-63.4765625
-102.05078125,-115.72265625,-43.45703125,-3.90625
-52.734375,-74.21875,-43.45703125,11.23046875
19.04296875,16.11328125,-44.43359375,-44.43359375
13.18359375,35.15625,-48.828125,-92.28515625
-70.80078125,-42.48046875,-51.7578125,-71.77734375
-122.0703125,-111.81640625,-46.875,-12.6953125
-83.984375,-102.5390625,-40.52734375,15.625
-6.34765625,-16.11328125,-41.9921875,-31.25
-1.46484375,39.55078125,-49.31640625,-91.30859375
-72.265625,-17.578125,-55.17578125,-78.125
-112.79296875,-108.3984375,-53.22265625,-18.5546875
-75.68359375,-126.46484375,-49.31640625,15.13671875
6.34765625,-22.94921875,-47.36328125,-19.53125
20.5078125,44.43359375,-47.8515625,-74.70703125
-49.8046875,-14.6484375,-49.8046875,-73.2421875
-104.4921875,-105.95703125,-46.38671875,-24.4140625
-88.37890625,-135.25390625,-42.48046875,6.8359375
1.953125,-25.390625,-42.96875,-30.76171875
35.64453125,55.6640625,-43.9453125,-84.47265625
-30.76171875,-11.71875,-46.875,-85.9375
-98.14453125,-97.65625,-51.26953125,-35.15625
-97.65625,-124.51171875,-49.8046875,13.18359375
-7.8125,-43.45703125,-45.41015625,-5.859375
30.76171875,35.64453125,-47.8515625,-67.3828125
-40.52734375,-2.9296875,-52.734375,-88.37890625
-107.421875,-89.84375,-52.734375,-41.9921875
-99.12109375,-135.25390625,-44.43359375,12.6953125
-15.625,-61.5234375,-38.57421875,-3.90625
28.3203125,26.3671875,-39.55078125,-67.3828125
-17.08984375,19.53125,-39.55078125,-93.26171875
-85.44921875,-70.3125,-46.38671875,-51.7578125
-109.86328125,-142.578125,-48.33984375,2.9296875
-34.1796875,-70.3125,-39.0625,-5.37109375
26.3671875,24.90234375,-43.9453125,-73.2421875
-9.27734375,15.13671875,-50.29296875,-112.79296875
-83.984375,-84.9609375,-53.22265625,-75.68359375
-112.3046875,-153.80859375,-48.33984375,-10.25390625
-35.15625,-89.35546875,-37.109375,2.9296875
30.76171875,19.53125,-36.1328125,-47.36328125
7.8125,35.64453125,-42.48046875,-89.84375
-62.98828125,-49.8046875,-45.8984375,-66.40625
-103.515625,-119.140625,-44.43359375,-6.8359375
-48.33984375,-90.33203125,-39.0625,11.71875
17.08984375,2.44140625,-46.38671875,-46.875
0.0,27.34375,-55.17578125,-104.4921875
-77.63671875,-59.08203125,-51.7578125,-82.03125
-119.62890625,-135.7421875,-47.8515625,-19.04296875
-74.21875,-116.2109375,-40.0390625,-0.48828125
4.39453125,-11.23046875,-38.57421875,-51.7578125
6.34765625,35.64453125,-46.875,-100.09765625
-76.66015625,-41.9921875,-52.24609375,-88.8671875
-121.09375,-126.46484375,-53.22265625,-35.64453125
-75.1953125,-117.1875,-45.41015625,0.48828125
7.32421875,-6.34765625,-41.50390625,-37.59765625
16.11328125,46.875,-52.734375,-95.21484375
-63.4765625,-21.97265625,-56.15234375,-87.40234375
-120.1171875,-110.83984375,-50.29296875,-31.73828125
-92.28515625,-131.34765625,-43.45703125,17.08984375
-0.48828125,-31.25,-38.0859375,-15.13671875
27.34375,30.76171875,-45.8984375,-87.40234375
-47.36328125,-24.90234375,-51.7578125,-84.9609375
-103.515625,-99.609375,-49.8046875,-33.69140625
-92.7734375,-131.34765625,-50.78125,-2.44140625
-14.16015625,-44.43359375,-49.31640625,-30.76171875
33.203125,44.43359375,-49.8046875,-74.70703125
-24.90234375,7.32421875,-49.8046875,-81.54296875
-110.3515625,-92.28515625,-51.26953125,-50.78125
-126.46484375,-134.27734375,-55.6640625,-15.625
-41.015625,-54.6875,-51.26953125,-33.203125
12.20703125,27.83203125,-47.36328125,-81.54296875
-34.66796875,1.953125,-48.33984375,-99.12109375
-103.515625,-97.16796875,-50.29296875,-60.05859375
-116.69921875,-145.99609375,-45.8984375,-5.859375
-38.0859375,-68.84765625,-45.8984375,-8.7890625
16.6015625,25.390625,-58.10546875,-73.73046875
-19.04296875,21.97265625,-60.05859375,-104.00390625
-94.23828125,-75.68359375,-55.17578125,-62.5
-121.09375,-137.6953125,-45.8984375,1.46484375
-49.31640625,-77.63671875,-41.9921875,7.8125
13.671875,11.23046875,-47.8515625,-49.31640625
1.46484375,18.06640625,-49.31640625,-85.9375
-75.1953125,-64.453125,-46.38671875,-53.7109375
-116.69921875,-130.37109375,-44.43359375,3.41796875
-48.33984375,-88.37890625,-37.109375,7.32421875
25.390625,-4.8828125,-31.73828125,-53.7109375
15.13671875,28.3203125,-36.62109375,-101.5625
-62.01171875,-28.80859375,-40.0390625,-79.1015625
-106.4453125,-110.83984375,-40.52734375,-24.4140625
-65.4296875,-96.19140625,-43.9453125,-11.71875
8.30078125,15.625,-48.33984375,-64.94140625
7.32421875,53.22265625,-54.6875,-116.2109375
-76.66015625,-41.9921875,-61.03515625,-103.02734375
-121.58203125,-117.67578125,-52.734375,-41.9921875
-86.42578125,-110.3515625,-45.8984375,-6.34765625
-8.30078125,-12.20703125,-45.8984375,-43.45703125
3.90625,36.62109375,-48.828125,-93.26171875
-64.453125,-30.2734375,-52.734375,-83.49609375
-113.76953125,-107.91015625,-48.828125,-26.3671875
-91.30859375,-115.72265625,-45.41015625,16.11328125
0.9765625,-19.53125,-47.8515625,-14.16015625
32.71484375,41.015625,-50.78125,-73.73046875
-45.8984375,-2.44140625,-60.05859375,-91.796875
-112.3046875,-94.23828125,-58.10546875,-42.48046875
-102.05078125,-143.5546875,-41.9921875,11.71875
-14.6484375,-42.48046875,-41.9921875,-8.30078125
28.80859375,42.48046875,-48.33984375,-68.359375
-32.2265625,-1.46484375,-49.8046875,-93.75
-101.07421875,-95.21484375,-50.29296875,-49.31640625
-101.07421875,-135.25390625,-45.8984375,6.34765625
-14.16015625,-59.5703125,-44.43359375,-15.625
34.1796875,27.83203125,-44.921875,-75.1953125
-18.06640625,12.20703125,-46.875,-88.8671875
-96.6796875,-71.77734375,-47.36328125,-55.17578125
-115.72265625,-126.953125,-41.50390625,-10.7421875
-44.43359375,-67.3828125,-38.57421875,-20.5078125
5.859375,25.87890625,-39.55078125,-74.21875
-27.34375,23.92578125,-48.33984375,-109.86328125
-105.46875,-65.4296875,-54.19921875,-77.63671875
-131.8359375,-133.30078125,-44.921875,-13.671875
-54.6875,-80.078125,-40.52734375,-9.27734375
4.8828125,16.6015625,-47.36328125,-61.03515625
-9.765625,34.66796875,-53.7109375,-95.21484375
-65.91796875,-56.15234375,-53.22265625,-69.3359375
-100.5859375,-131.34765625,-47.36328125,-13.671875
-46.38671875,-89.84375,-38.0859375,1.46484375
22.4609375,13.18359375,-36.1328125,-43.45703125
10.25390625,36.1328125,-41.9921875,-85.44921875
-70.3125,-57.6171875,-43.9453125,-70.80078125
-115.72265625,-121.09375,-47.36328125,-14.6484375
-66.40625,-92.28515625,-45.41015625,13.18359375
15.13671875,0.0,-43.45703125,-31.25
19.53125,42.48046875,-47.36328125,-75.68359375
-58.10546875,-37.59765625,-47.8515625,-62.5
-105.46875,-123.53515625,-48.828125,-13.18359375
-66.40625,-117.1875,-43.9453125,10.25390625
8.7890625,-20.5078125,-42.48046875,-31.25
24.4140625,31.73828125,-48.33984375,-89.35546875
-43.45703125,-22.4609375,-51.7578125,-91.796875
-97.65625,-104.00390625,-50.29296875,-36.62109375
-84.9609375,-123.046875,-48.828125,-4.39453125
-0.9765625,-26.3671875,-48.828125,-40.52734375
21.97265625,41.9921875,-51.7578125,-92.7734375
-51.7578125,-12.6953125,-53.7109375,-91.796875
-101.5625,-86.9140625,-50.78125,-38.57421875
-100.09765625,-125.9765625,-42.48046875,0.9765625
-20.01953125,-52.734375,-33.69140625,-24.4140625
13.18359375,36.1328125,-38.0859375,-84.47265625
-52.734375,-6.34765625,-48.828125,-100.5859375
-112.79296875,-104.00390625,-49.31640625,-55.17578125
-116.2109375,-134.765625,-40.0390625,-1.46484375
-36.62109375,-53.7109375,-34.66796875,-26.85546875
11.23046875,38.57421875,-41.9921875,-94.7265625
-32.2265625,20.5078125,-47.8515625,-109.86328125
-104.98046875,-88.8671875,-51.26953125,-67.3828125
-120.60546875,-143.5546875,-52.24609375,-16.6015625
-36.1328125,-70.80078125,-45.41015625,-20.5078125
18.06640625,24.4140625,-50.29296875,-78.125
-20.01953125,16.11328125,-55.6640625,-107.91015625
-100.09765625,-70.3125,-57.12890625,-73.2421875
-128.41796875,-137.20703125,-56.15234375,-13.18359375
-37.109375,-85.9375,-44.43359375,10.7421875
29.296875,23.92578125,-45.8984375,-45.8984375
-18.5546875,35.15625,-57.6171875,-111.81640625
-109.375,-55.17578125,-58.10546875,-91.796875
-149.90234375,-126.46484375,-52.734375,-41.50390625
-90.8203125,-85.44921875,-53.22265625,-41.9921875
-31.73828125,16.6015625,-58.10546875,-106.93359375
-57.6171875,50.29296875,-65.91796875,-169.921875
-154.296875,-31.25,-72.265625,-169.921875
-202.63671875,-111.328125,-74.21875,-122.55859375
-155.2734375,-84.47265625,-69.82421875,-104.98046875
-83.984375,20.01953125,-68.359375,-158.203125
-91.30859375,62.01171875,-76.66015625,-226.07421875
-173.828125,-6.8359375,-80.078125,-225.09765625
-217.7734375,-72.265625,-81.0546875,-153.3203125
-188.4765625,-79.1015625,-86.42578125,-124.51171875
-105.46875,2.44140625,-81.0546875,-171.38671875
-84.9609375,68.84765625,-80.56640625,-227.05078125
-153.80859375,1.953125,-85.44921875,-227.05078125
-199.70703125,-87.40234375,-84.47265625,-164.0625
-177.24609375,-90.8203125,-79.58984375,-111.81640625
-82.51953125,16.6015625,-79.1015625,-131.8359375
-42.96875,95.703125,-79.1015625,-176.7578125
-102.05078125,44.43359375,-79.58984375,-166.50390625
-153.3203125,-50.78125,-84.47265625,-112.3046875
-137.20703125,-78.61328125,-76.66015625,-63.4765625
-41.9921875,10.25390625,-70.3125,-69.82421875
2.44140625,68.359375,-76.171875,-130.37109375
-57.12890625,16.6015625,-81.0546875,-147.94921875
-125.48828125,-80.56640625,-75.68359375,-91.30859375
-122.55859375,-133.30078125,-67.87109375,-43.45703125
-27.34375,-57.6171875,-58.59375,-62.01171875
24.90234375,42.48046875,-52.734375,-106.93359375
-23.4375,22.94921875,-54.6875,-118.65234375
-92.7734375,-86.42578125,-54.6875,-70.3125
-104.00390625,-151.85546875,-51.26953125,-5.37109375
-11.23046875,-73.73046875,-50.78125,-1.46484375
50.29296875,37.59765625,-50.29296875,-47.8515625
17.08984375,19.53125,-44.43359375,-70.3125
-61.5234375,-94.23828125,-40.52734375,-32.2265625
-89.84375,-153.3203125,-41.015625,31.73828125
-8.30078125,-83.49609375,-37.59765625,37.109375
62.5,27.34375,-40.0390625,-12.6953125
40.0390625,42.48046875,-44.43359375,-45.41015625
-44.43359375,-54.6875,-42.48046875,-20.01953125
-82.03125,-136.23046875,-36.62109375,34.66796875
-6.34765625,-88.8671875,-31.73828125,50.78125
67.3828125,5.859375,-33.203125,6.34765625
45.41015625,30.2734375,-39.55078125,-42.96875
-35.15625,-32.71484375,-46.38671875,-26.85546875
-70.3125,-110.3515625,-46.875,30.76171875
-13.18359375,-98.6328125,-37.59765625,47.8515625
60.05859375,13.18359375,-37.109375,-2.9296875
50.78125,55.6640625,-47.36328125,-58.59375
-25.87890625,-46.38671875,-48.828125,-41.015625
-66.89453125,-124.0234375,-41.015625,19.53125
-26.3671875,-102.5390625,-31.73828125,47.36328125
47.8515625,-6.8359375,-37.59765625,-0.48828125
54.6875,54.6875,-45.8984375,-56.15234375
-20.99609375,-12.6953125,-46.38671875,-45.41015625
-77.63671875,-101.07421875,-47.8515625,11.71875
-51.26953125,-110.3515625,-42.48046875,54.19921875
40.0390625,-17.578125,-39.0625,19.53125
62.01171875,46.38671875,-40.0390625,-39.0625
-13.18359375,-10.25390625,-42.96875,-42.48046875
-69.82421875,-101.5625,-42.96875,7.8125
-53.22265625,-136.71875,-39.55078125,55.17578125
34.66796875,-42.96875,-37.59765625,37.109375
68.84765625,41.015625,-42.48046875,-25.390625
3.90625,-5.37109375,-48.828125,-44.43359375
-60.546875,-97.16796875,-40.52734375,8.30078125
-62.98828125,-138.671875,-33.203125,48.828125
19.53125,-58.59375,-30.76171875,31.25
68.359375,43.9453125,-34.1796875,-36.1328125
13.18359375,29.78515625,-45.41015625,-74.70703125
-62.98828125,-72.265625,-46.38671875,-28.3203125
-76.66015625,-136.23046875,-38.57421875,26.85546875
-1.46484375,-70.80078125,-38.0859375,15.625
48.33984375,19.04296875,-42.48046875,-37.109375
4.39453125,20.99609375,-49.31640625,-68.84765625
-73.73046875,-57.12890625,-54.19921875,-39.0625
-89.84375,-127.9296875,-50.29296875,24.4140625
-11.71875,-83.49609375,-45.8984375,29.296875
44.43359375,17.08984375,-47.8515625,-26.85546875
15.625,39.0625,-47.8515625,-60.546875
-62.01171875,-53.22265625,-43.9453125,-33.203125
-97.16796875,-140.13671875,-40.52734375,17.578125
-36.62109375,-88.37890625,-41.9921875,18.06640625
27.34375,20.5078125,-43.9453125,-38.57421875
17.08984375,36.1328125,-42.48046875,-77.63671875
-60.546875,-51.26953125,-48.828125,-59.5703125
-107.91015625,-132.32421875,-51.26953125,-9.27734375
-53.7109375,-110.3515625,-40.0390625,11.71875
22.4609375,-9.27734375,-42.96875,-38.57421875
18.06640625,35.64453125,-47.8515625,-90.33203125
-57.6171875,-39.0625,-46.875,-73.73046875
-104.98046875,-126.46484375,-47.36328125,-20.5078125
-59.5703125,-115.234375,-35.15625,11.23046875
24.90234375,-10.7421875,-34.1796875,-25.390625
40.52734375,37.59765625,-41.9921875,-79.1015625
-30.76171875,-26.85546875,-41.9921875,-69.3359375
-81.0546875,-111.328125,-38.0859375,-7.32421875
-60.05859375,-125.9765625,-41.015625,27.34375
5.859375,-17.578125,-54.19921875,-23.4375
21.97265625,47.8515625,-55.17578125,-87.890625
-41.50390625,-6.8359375,-50.29296875,-82.51953125
-98.6328125,-87.40234375,-48.33984375,-27.83203125
-87.890625,-124.51171875,-44.921875,17.578125
-6.8359375,-34.1796875,-39.55078125,-11.23046875
23.92578125,53.7109375,-45.8984375,-77.1484375
-39.55078125,19.04296875,-53.22265625,-88.37890625
-106.4453125,-81.0546875,-50.29296875,-47.36328125
-106.93359375,-142.08984375,-47.8515625,-0.9765625
-19.04296875,-65.4296875,-45.41015625,-13.671875
30.2734375,29.78515625,-48.33984375,-72.75390625
-20.5078125,11.23046875,-50.78125,-94.23828125
-93.26171875,-92.28515625,-54.6875,-55.6640625
-99.12109375,-140.13671875,-56.640625,-7.8125
-18.06640625,-59.5703125,-49.8046875,-14.16015625
28.80859375,20.5078125,-46.875,-65.4296875
-4.8828125,12.6953125,-50.78125,-93.75
-78.125,-67.87109375,-51.26953125,-59.08203125
-107.421875,-127.44140625,-48.33984375,1.46484375
-38.0859375,-78.61328125,-43.9453125,2.9296875
20.99609375,21.484375,-48.828125,-45.8984375
-10.7421875,41.50390625,-56.640625,-76.171875
-93.26171875,-49.31640625,-57.6171875,-54.19921875
-127.44140625,-132.8125,-49.31640625,-2.9296875
-58.59375,-96.19140625,-38.0859375,9.765625
12.6953125,13.18359375,-36.1328125,-41.50390625
-2.9296875,41.50390625,-39.55078125,-96.19140625
-72.75390625,-56.15234375,-44.43359375,-83.0078125
-111.328125,-140.13671875,-45.41015625,-29.78515625
-62.5,-98.6328125,-44.921875,-12.20703125
15.13671875,16.11328125,-43.9453125,-53.7109375
10.7421875,39.55078125,-47.8515625,-99.609375
-57.12890625,-45.8984375,-49.31640625,-78.61328125
-97.16796875,-124.51171875,-45.8984375,-19.04296875
-68.84765625,-128.41796875,-44.921875,0.48828125
4.8828125,-19.53125,-44.921875,-39.0625
18.5546875,54.6875,-47.8515625,-80.56640625
-57.12890625,-16.6015625,-48.33984375,-74.70703125
-112.3046875,-112.3046875,-44.921875,-23.4375
-91.30859375,-132.32421875,-46.38671875,10.7421875
-7.8125,-19.53125,-45.41015625,-24.90234375
16.6015625,72.75390625,-46.875,-72.265625
-50.29296875,-5.859375,-56.640625,-78.125
-106.4453125,-122.0703125,-57.6171875,-40.0390625
-100.09765625,-135.7421875,-47.36328125,0.0
-13.18359375,-34.1796875,-41.50390625,-25.390625
32.2265625,46.38671875,-35.64453125,-78.125
-29.78515625,3.90625,-34.1796875,-95.21484375
-96.19140625,-96.19140625,-39.55078125,-55.6640625
-94.23828125,-146.97265625,-41.9921875,-5.37109375
-10.25390625,-66.89453125,-41.015625,-25.390625
33.203125,33.69140625,-42.96875,-85.44921875
-25.87890625,10.25390625,-47.8515625,-104.98046875
-101.5625,-86.42578125,-50.78125,-63.4765625
-115.72265625,-146.97265625,-50.78125,-7.8125
-35.15625,-77.63671875,-43.45703125,-13.18359375
24.4140625,36.1328125,-41.50390625,-70.80078125
-16.11328125,32.2265625,-46.38671875,-97.65625
-95.21484375,-72.265625,-48.33984375,-62.98828125
-112.3046875,-141.11328125,-44.43359375,-8.7890625
-41.50390625,-90.33203125,-41.50390625,-7.32421875
16.11328125,13.18359375,-38.57421875,-57.6171875
-5.37109375,24.4140625,-41.015625,-89.84375
-83.984375,-75.68359375,-41.9921875,-62.98828125
-108.88671875,-151.85546875,-40.0390625,-7.32421875
-37.109375,-93.26171875,-38.57421875,0.9765625
27.34375,15.13671875,-37.109375,-53.7109375
15.13671875,47.8515625,-45.8984375,-99.12109375
-56.15234375,-29.296875,-49.8046875,-73.73046875
-97.65625,-132.32421875,-40.52734375,-13.18359375
-45.41015625,-112.79296875,-41.015625,-0.9765625
49.31640625,5.37109375,-39.55078125,-31.73828125
36.1328125,39.0625,-38.57421875,-69.82421875
-74.21875,-54.6875,-43.9453125,-77.1484375
-113.76953125,-136.23046875,-41.9921875,-32.71484375
-72.265625,-117.1875,-34.66796875,-3.41796875
3.90625,-2.9296875,-35.64453125,-43.9453125
14.6484375,52.734375,-39.55078125,-94.23828125
-59.5703125,-27.34375,-40.0390625,-90.8203125
-118.65234375,-123.046875,-47.8515625,-46.875
-93.75,-138.671875,-45.8984375,-11.71875
-0.9765625,-27.34375,-37.109375,-35.15625
24.90234375,56.15234375,-41.50390625,-86.9140625
-53.22265625,-15.13671875,-51.26953125,-95.21484375
-118.1640625,-114.74609375,-58.10546875,-47.8515625
-106.4453125,-143.5546875,-54.19921875,0.48828125
-25.390625,-40.52734375,-43.9453125,-23.92578125
15.13671875,51.7578125,-43.9453125,-83.984375
-43.45703125,1.953125,-51.26953125,-92.7734375
-114.2578125,-101.5625,-53.22265625,-48.33984375
-116.2109375,-139.6484375,-51.7578125,-3.90625
-26.3671875,-41.9921875,-47.8515625,-15.625
24.90234375,33.203125,-46.875,-71.2890625
-29.78515625,-10.7421875,-48.33984375,-90.33203125
-99.12109375,-102.5390625,-50.29296875,-42.96875
-104.4921875,-146.97265625,-45.41015625,10.7421875
-16.6015625,-63.96484375,-34.66796875,0.0
39.0625,39.55078125,-36.62109375,-56.640625
-3.90625,29.78515625,-44.921875,-85.9375
-86.42578125,-84.9609375,-45.41015625,-57.6171875
-119.140625,-162.109375,-43.9453125,-11.71875
-50.78125,-83.0078125,-46.38671875,-17.578125
11.23046875,23.92578125,-47.8515625,-69.82421875
-15.13671875,22.4609375,-50.78125,-107.421875
-93.26171875,-72.265625,-50.78125,-81.54296875
-129.8828125,-156.25,-47.36328125,-25.390625
-77.63671875,-98.6328125,-52.24609375,-20.5078125
-1.46484375,16.6015625,-54.6875,-66.89453125
-1.953125,39.0625,-49.31640625,-100.5859375
-76.66015625,-53.7109375,-46.38671875,-78.125
-116.2109375,-145.5078125,-41.9921875,-18.06640625
-65.4296875,-122.0703125,-40.52734375,-1.46484375
8.7890625,-12.6953125,-38.57421875,-45.8984375
7.8125,48.828125,-40.0390625,-86.9140625
-66.89453125,-20.01953125,-48.828125,-74.21875
-112.79296875,-130.37109375,-45.41015625,-22.94921875
-67.87109375,-130.859375,-40.0390625,3.90625
14.6484375,-13.18359375,-41.50390625,-39.55078125
24.4140625,53.7109375,-45.41015625,-90.8203125
-49.8046875,-23.92578125,-49.8046875,-83.49609375
-99.12109375,-125.9765625,-45.8984375,-31.25
-74.21875,-124.0234375,-35.15625,3.90625
8.30078125,-8.7890625,-31.73828125,-32.71484375
29.78515625,57.6171875,-35.15625,-88.37890625
-47.36328125,-7.8125,-46.875,-88.37890625
-109.375,-99.609375,-52.734375,-40.0390625
-96.6796875,-135.25390625,-44.921875,-0.9765625
-3.41796875,-42.96875,-36.1328125,-23.92578125
34.1796875,42.96875,-37.109375,-73.73046875
-37.109375,-6.34765625,-42.96875,-82.03125
-101.07421875,-106.93359375,-48.828125,-38.0859375
-104.4921875,-152.34375,-50.29296875,3.41796875
-19.04296875,-56.15234375,-42.96875,-16.11328125
30.2734375,50.29296875,-37.109375,-70.80078125
-35.64453125,19.53125,-43.9453125,-99.12109375
-112.79296875,-94.23828125,-51.7578125,-61.03515625
-118.65234375,-148.92578125,-42.96875,-2.9296875
-33.203125,-54.6875,-39.0625,-10.25390625
31.25,42.96875,-46.875,-61.5234375
-10.25390625,15.13671875,-53.22265625,-88.8671875
-87.890625,-80.078125,-57.6171875,-62.98828125
-112.3046875,-133.7890625,-56.15234375,-17.08984375
-32.2265625,-74.70703125,-45.41015625,-14.16015625
35.15625,33.203125,-41.9921875,-60.05859375
4.8828125,46.38671875,-45.41015625,-93.26171875
-76.66015625,-60.546875,-45.41015625,-64.453125
-111.81640625,-146.484375,-44.43359375,-15.625
-48.828125,-97.16796875,-38.57421875,-1.46484375
24.90234375,20.99609375,-36.62109375,-42.96875
17.578125,61.03515625,-41.015625,-90.8203125
-63.4765625,-33.203125,-41.9921875,-68.84765625
-105.46875,-125.0,-44.921875,-13.671875
-50.78125,-90.33203125,-46.38671875,-0.9765625
21.484375,15.13671875,-39.55078125,-44.43359375
18.06640625,48.828125,-38.57421875,-84.9609375
-62.98828125,-34.1796875,-44.921875,-74.21875
-117.67578125,-129.39453125,-43.9453125,-25.87890625
-86.9140625,-114.74609375,-40.52734375,0.48828125
-7.8125,1.953125,-38.57421875,-34.1796875
14.6484375,63.96484375,-42.96875,-81.0546875
-62.5,-9.765625,-50.29296875,-74.70703125
-120.60546875,-107.421875,-45.8984375,-25.87890625
-95.21484375,-125.48828125,-40.52734375,10.7421875
-11.23046875,-21.484375,-41.50390625,-22.94921875
15.625,57.6171875,-45.8984375,-85.9375
-50.29296875,-18.06640625,-49.8046875,-91.796875
-100.09765625,-119.140625,-48.828125,-44.43359375
-80.56640625,-137.20703125,-46.38671875,3.90625
3.41796875,-31.73828125,-43.45703125,-17.08984375
38.0859375,57.6171875,-50.78125,-76.171875
-26.3671875,10.25390625,-58.10546875,-87.40234375
-96.19140625,-97.65625,-52.734375,-43.9453125
-100.09765625,-149.90234375,-45.41015625,-1.953125
-15.13671875,-54.6875,-44.921875,-19.53125
32.71484375,40.0390625,-42.48046875,-68.84765625
-29.78515625,15.625,-45.41015625,-87.40234375
-107.421875,-80.078125,-50.78125,-45.8984375
-116.69921875,-149.4140625,-51.26953125,0.9765625
-29.78515625,-63.4765625,-50.78125,-11.23046875
21.484375,51.26953125,-51.26953125,-65.4296875
-27.83203125,36.62109375,-53.22265625,-93.26171875
-104.00390625,-77.1484375,-51.26953125,-61.03515625
-123.53515625,-145.5078125,-47.36328125,-14.16015625
-50.78125,-73.73046875,-40.0390625,-8.30078125
8.7890625,27.83203125,-37.109375,-59.08203125
-17.08984375,45.8984375,-43.9453125,-98.6328125
-102.5390625,-56.640625,-52.734375,-77.63671875
-130.37109375,-149.4140625,-58.59375,-23.4375
-36.62109375,-89.84375,-48.828125,0.48828125
19.04296875,22.4609375,-41.9921875,-54.19921875
-19.53125,44.921875,-48.33984375,-106.93359375
-84.9609375,-53.22265625,-52.24609375,-73.73046875
-120.60546875,-144.53125,-47.8515625,-16.6015625
-64.94140625,-112.3046875,-34.66796875,2.44140625
12.6953125,18.06640625,-31.25,-38.57421875
1.953125,62.5,-46.38671875,-94.7265625
-71.77734375,-54.19921875,-53.7109375,-84.47265625
-113.28125,-145.5078125,-47.8515625,-25.87890625
-68.359375,-114.2578125,-41.015625,0.48828125
13.671875,-8.7890625,-41.9921875,-38.0859375
18.06640625,34.66796875,-50.78125,-81.54296875
-62.5,-45.8984375,-52.24609375,-71.77734375
-111.81640625,-135.7421875,-47.36328125,-23.4375
-83.0078125,-138.671875,-42.48046875,9.765625
-4.8828125,-33.69140625,-40.52734375,-19.53125
11.71875,38.57421875,-42.48046875,-74.21875
-62.98828125,-27.83203125,-44.921875,-80.078125
-115.72265625,-119.62890625,-46.875,-31.73828125
-97.65625,-143.06640625,-43.45703125,8.30078125
-19.04296875,-31.73828125,-41.50390625,-16.6015625
15.13671875,63.96484375,-55.6640625,-75.68359375
-41.9921875,0.0,-59.08203125,-87.40234375
-102.5390625,-104.00390625,-51.7578125,-44.921875
-106.93359375,-144.04296875,-45.8984375,0.48828125
-26.3671875,-50.78125,-40.52734375,-12.20703125
27.83203125,44.43359375,-38.57421875,-64.453125
-27.34375,2.44140625,-44.921875,-83.984375
-102.5390625,-101.5625,-53.7109375,-41.9921875
-113.76953125,-155.2734375,-53.22265625,10.25390625
-27.83203125,-81.0546875,-45.8984375,-4.39453125
35.64453125,23.92578125,-39.55078125,-57.12890625
-3.41796875,35.64453125,-37.59765625,-75.1953125
-75.1953125,-71.2890625,-43.45703125,-38.0859375
-96.6796875,-152.83203125,-44.43359375,12.6953125
-26.3671875,-80.078125,-37.59765625,12.20703125
38.57421875,32.71484375,-32.71484375,-40.52734375
10.7421875,42.48046875,-36.1328125,-76.171875
-76.171875,-63.96484375,-43.45703125,-54.19921875
-114.2578125,-147.4609375,-49.8046875,-15.13671875
-46.875,-98.6328125,-49.8046875,-7.8125
23.92578125,14.6484375,-40.0390625,-51.7578125
3.41796875,41.9921875,-38.57421875,-92.7734375
-80.56640625,-47.36328125,-44.921875,-74.70703125
-121.58203125,-129.39453125,-48.33984375,-28.80859375
-72.75390625,-98.6328125,-51.7578125,-17.578125
-5.859375,-1.46484375,-51.26953125,-68.359375
-12.6953125,44.43359375,-54.6875,-119.62890625
-88.37890625,-22.4609375,-55.17578125,-102.5390625
-130.859375,-118.65234375,-51.7578125,-45.8984375
-90.33203125,-120.1171875,-50.78125,-18.06640625
-8.30078125,-11.23046875,-50.78125,-47.8515625
6.34765625,50.29296875,-55.17578125,-89.35546875
-63.96484375,-30.2734375,-51.26953125,-83.0078125
-110.3515625,-120.60546875,-45.41015625,-33.203125
-81.0546875,-132.32421875,-49.31640625,1.46484375
2.9296875,-17.578125,-45.41015625,-24.4140625
29.296875,64.453125,-39.55078125,-72.265625
-43.45703125,-13.18359375,-46.38671875,-70.80078125
-98.6328125,-99.12109375,-51.7578125,-20.01953125
-83.984375,-128.41796875,-46.38671875,16.6015625
-1.953125,-49.8046875,-42.96875,-10.7421875
32.71484375,42.96875,-49.8046875,-62.98828125
-33.69140625,-0.48828125,-58.59375,-76.171875
-92.28515625,-103.02734375,-64.94140625,-41.9921875
-95.703125,-153.80859375,-58.59375,4.39453125
-20.01953125,-58.59375,-47.36328125,-10.7421875
32.2265625,55.17578125,-38.57421875,-65.91796875
-32.71484375,21.484375,-46.38671875,-86.9140625
-110.83984375,-96.19140625,-51.7578125,-51.7578125
-119.62890625,-150.390625,-43.9453125,-5.859375
-38.0859375,-52.24609375,-39.0625,-12.6953125
15.13671875,38.57421875,-41.015625,-66.89453125
-27.83203125,20.01953125,-41.9921875,-90.8203125
-98.6328125,-79.58984375,-42.48046875,-46.875
-117.1875,-153.3203125,-42.48046875,1.953125
-42.96875,-87.40234375,-34.66796875,-10.25390625
23.92578125,22.4609375,-34.66796875,-59.08203125
-1.953125,33.203125,-45.8984375,-84.9609375
-79.58984375,-62.5,-54.19921875,-62.01171875
-108.3984375,-139.6484375,-52.24609375,-17.578125
-44.921875,-94.7265625,-47.8515625,-8.30078125
17.08984375,22.94921875,-44.921875,-56.640625
2.9296875,51.7578125,-45.8984375,-100.09765625
-77.63671875,-64.94140625,-54.6875,-75.1953125
-122.0703125,-151.3671875,-58.10546875,-23.4375
-57.6171875,-113.76953125,-54.19921875,-7.8125
22.4609375,0.48828125,-46.875,-46.38671875
17.08984375,38.57421875,-45.8984375,-93.75
-58.59375,-45.8984375,-51.26953125,-81.0546875
-104.98046875,-125.0,-48.828125,-20.99609375
-66.40625,-119.140625,-43.45703125,4.8828125
8.7890625,-2.9296875,-40.0390625,-34.1796875
16.11328125,62.01171875,-40.52734375,-74.21875
-57.12890625,-12.20703125,-43.9453125,-67.87109375
-114.74609375,-108.88671875,-44.921875,-27.83203125
-89.84375,-132.32421875,-45.8984375,-0.48828125
-2.44140625,-18.5546875,-41.50390625,-30.76171875
21.484375,58.10546875,-44.921875,-84.9609375
-50.78125,-20.5078125,-52.24609375,-92.28515625
-104.00390625,-120.60546875,-47.8515625,-48.33984375
-92.7734375,-143.06640625,-44.43359375,-13.671875
-9.765625,-38.0859375,-40.0390625,-35.64453125
28.80859375,54.6875,-41.50390625,-76.66015625
-41.50390625,2.9296875,-48.33984375,-86.9140625
-102.05078125,-90.8203125,-42.48046875,-40.0390625
-93.26171875,-131.8359375,-37.59765625,9.765625
-17.578125,-53.7109375,-37.109375,-14.6484375
25.87890625,44.921875,-34.1796875,-72.265625
-29.296875,17.578125,-41.50390625,-94.23828125
-104.4921875,-86.42578125,-51.26953125,-63.96484375
-114.2578125,-146.484375,-49.8046875,-12.6953125
-30.76171875,-60.546875,-49.8046875,-14.6484375
22.4609375,46.875,-48.33984375,-66.40625
-20.01953125,25.87890625,-43.9453125,-91.796875
-99.609375,-80.56640625,-45.41015625,-57.6171875
-124.51171875,-140.625,-46.38671875,-6.8359375
-35.64453125,-67.87109375,-41.015625,-5.37109375
28.80859375,33.69140625,-38.57421875,-52.734375
-4.39453125,31.25,-44.921875,-91.796875
-82.51953125,-63.4765625,-52.734375,-65.4296875
-121.09375,-133.30078125,-57.12890625,-16.11328125
-54.19921875,-91.30859375,-53.22265625,-10.7421875
14.6484375,8.7890625,-45.41015625,-52.24609375
-2.44140625,38.0859375,-42.96875,-87.40234375
-83.49609375,-51.26953125,-48.828125,-67.3828125
-119.140625,-152.34375,-53.22265625,-19.04296875
-53.7109375,-123.53515625,-44.43359375,-1.46484375
17.08984375,18.06640625,-43.9453125,-44.43359375
6.34765625,73.73046875,-52.24609375,-89.84375
-65.91796875,-39.55078125,-52.734375,-73.2421875
-106.93359375,-134.27734375,-47.36328125,-14.6484375
-63.4765625,-119.62890625,-41.9921875,9.27734375
14.16015625,-11.23046875,-39.0625,-37.59765625
13.671875,44.921875,-41.9921875,-92.7734375
-58.59375,-35.64453125,-51.7578125,-83.984375
-107.91015625,-125.9765625,-55.6640625,-28.3203125
-77.63671875,-130.37109375,-46.875,2.44140625
11.71875,-29.296875,-42.48046875,-24.90234375
33.69140625,61.5234375,-41.50390625,-65.91796875
-43.9453125,9.765625,-39.55078125,-70.3125
-107.421875,-106.93359375,-43.45703125,-31.25
-95.21484375,-143.5546875,-41.015625,4.8828125
-7.32421875,-25.87890625,-38.0859375,-18.5546875
41.015625,80.56640625,-39.0625,-61.5234375
-27.34375,12.20703125,-34.66796875,-71.2890625
-117.67578125,-106.4453125,-35.15625,-48.33984375
-133.30078125,-151.3671875,-39.55078125,-14.16015625
-39.0625,-60.546875,-37.59765625,-20.5078125
11.23046875,34.1796875,-36.62109375,-79.58984375
-41.9921875,3.41796875,-42.96875,-102.05078125
-113.76953125,-95.703125,-53.22265625,-66.89453125
-125.0,-139.6484375,-53.22265625,-17.578125
-33.69140625,-60.05859375,-42.96875,-15.13671875
20.99609375,31.73828125,-40.0390625,-65.4296875
-21.97265625,44.43359375,-42.48046875,-86.42578125
-84.9609375,-61.5234375,-46.875,-48.828125
-104.4921875,-162.59765625,-43.45703125,-1.953125
-40.0390625,-96.6796875,-40.52734375,-7.32421875
23.4375,15.13671875,-40.0390625,-60.05859375
-2.9296875,35.15625,-40.0390625,-88.37890625
-81.0546875,-64.453125,-51.7578125,-56.15234375
-111.328125,-154.78515625,-50.29296875,-6.8359375
-43.45703125,-102.5390625,-42.48046875,-2.44140625
24.90234375,20.99609375,-40.0390625,-55.6640625
8.30078125,41.9921875,-43.9453125,-93.75
-75.68359375,-56.15234375,-49.31640625,-65.4296875
-122.55859375,-130.859375,-50.29296875,-11.23046875
-62.98828125,-99.12109375,-43.9453125,7.32421875
15.625,11.71875,-38.57421875,-35.64453125
3.90625,52.734375,-43.45703125,-78.125
-80.56640625,-43.9453125,-48.828125,-66.89453125
-115.234375,-147.4609375,-47.8515625,-18.5546875
-63.96484375,-130.859375,-45.41015625,8.30078125
14.16015625,-10.25390625,-43.9453125,-25.390625
15.13671875,48.33984375,-44.921875,-75.68359375
-56.640625,-21.97265625,-51.7578125,-75.68359375
-99.609375,-117.67578125,-53.7109375,-23.4375
-79.1015625,-120.1171875,-50.78125,8.30078125
4.8828125,-8.30078125,-47.8515625,-31.25
28.80859375,54.6875,-42.48046875,-84.47265625
-45.8984375,-8.30078125,-41.50390625,-85.44921875
-94.7265625,-112.79296875,-43.9453125,-32.71484375
-78.125,-131.8359375,-49.31640625,1.953125
-0.48828125,-29.78515625,-46.875,-23.92578125
34.1796875,45.41015625,-44.43359375,-71.2890625
-31.73828125,1.46484375,-47.8515625,-79.1015625
-99.609375,-100.5859375,-45.41015625,-34.66796875
-97.65625,-134.765625,-41.50390625,8.7890625
-17.08984375,-38.0859375,-38.57421875,-9.765625
28.3203125,55.17578125,-45.41015625,-69.82421875
-27.83203125,16.11328125,-54.6875,-86.9140625
-96.19140625,-95.21484375,-53.22265625,-41.015625
-108.88671875,-147.4609375,-47.8515625,5.859375
-20.5078125,-57.6171875,-41.50390625,-10.25390625
32.71484375,50.78125,-36.1328125,-69.3359375
-27.34375,33.69140625,-44.921875,-102.5390625
-95.21484375,-80.56640625,-50.78125,-65.4296875
-99.12109375,-142.578125,-40.52734375,-2.9296875
-20.01953125,-71.77734375,-39.0625,-4.39453125
32.2265625,37.109375,-42.48046875,-54.6875
0.0,49.31640625,-46.875,-83.0078125
-72.265625,-59.5703125,-51.7578125,-49.8046875
-98.6328125,-136.23046875,-44.43359375,13.18359375
-32.2265625,-87.40234375,-39.55078125,15.625
20.01953125,32.2265625,-40.0390625,-44.43359375
-3.41796875,53.22265625,-37.59765625,-83.984375
-81.54296875,-60.05859375,-40.52734375,-66.40625
-119.140625,-141.11328125,-41.50390625,-16.11328125
-58.10546875,-104.4921875,-40.0390625,5.37109375
16.11328125,12.6953125,-42.48046875,-35.64453125
14.16015625,45.41015625,-47.36328125,-85.44921875
-62.98828125,-34.66796875,-55.17578125,-77.63671875
-111.328125,-121.09375,-56.15234375,-23.4375
-63.4765625,-128.90625,-46.875,3.90625
18.06640625,-16.11328125,-39.55078125,-35.15625
18.5546875,47.8515625,-43.9453125,-85.44921875
-62.98828125,-37.109375,-52.24609375,-82.03125
-117.1875,-131.8359375,-49.8046875,-34.1796875
-89.35546875,-125.48828125,-49.31640625,-3.41796875
-7.32421875,-13.671875,-48.828125,-37.59765625
11.23046875,52.24609375,-45.41015625,-82.51953125
-62.5,-18.06640625,-45.41015625,-78.125
-116.69921875,-120.60546875,-46.38671875,-32.2265625
-96.19140625,-131.34765625,-47.36328125,4.8828125
-4.39453125,-21.484375,-42.96875,-16.6015625
33.69140625,43.9453125,-40.0390625,-61.03515625
-28.3203125,-13.671875,-43.45703125,-68.359375
-98.14453125,-100.09765625,-52.24609375,-27.83203125
-101.5625,-139.6484375,-54.6875,8.30078125
-10.25390625,-50.78125,-46.38671875,-8.7890625
26.85546875,50.78125,-44.43359375,-63.4765625
-41.50390625,20.5078125,-51.26953125,-89.84375
-109.86328125,-81.54296875,-55.6640625,-50.78125
-117.67578125,-131.8359375,-53.7109375,-1.46484375
-28.80859375,-50.78125,-41.50390625,-8.30078125
29.78515625,48.33984375,-33.203125,-61.5234375
-18.5546875,25.390625,-41.015625,-88.8671875
-96.19140625,-84.9609375,-49.8046875,-56.15234375
-123.53515625,-145.01953125,-50.29296875,-11.71875
-46.875,-67.87109375,-42.48046875,-14.16015625
16.11328125,31.25,-44.43359375,-72.75390625
-16.6015625,35.64453125,-54.19921875,-105.46875
-92.28515625,-60.05859375,-58.10546875,-63.96484375
-118.1640625,-138.671875,-54.19921875,2.44140625
-35.15625,-87.890625,-49.8046875,10.25390625
44.43359375,18.06640625,-44.921875,-34.66796875
4.8828125,40.0390625,-45.8984375,-82.03125
-85.44921875,-48.828125,-52.734375,-75.1953125
-118.65234375,-140.625,-53.22265625,-24.90234375
-59.5703125,-119.140625,-44.921875,-0.9765625
19.53125,4.39453125,-32.71484375,-34.1796875
2.9296875,47.8515625,-37.109375,-85.44921875
-71.2890625,-47.36328125,-42.48046875,-67.87109375
-102.5390625,-135.25390625,-40.52734375,-10.7421875
-62.5,-122.55859375,-40.52734375,5.859375
14.16015625,-17.08984375,-37.109375,-39.55078125
19.04296875,40.0390625,-39.55078125,-93.26171875
-66.40625,-35.64453125,-50.29296875,-95.703125
-118.65234375,-125.9765625,-51.26953125,-52.24609375
-89.35546875,-125.48828125,-42.96875,-19.53125
-11.71875,-20.99609375,-34.66796875,-51.7578125
9.765625,54.19921875,-39.55078125,-99.12109375
-68.359375,-12.20703125,-50.78125,-89.84375
-128.41796875,-126.953125,-49.31640625,-37.109375
-105.46875,-162.109375,-49.31640625,3.41796875
-17.578125,-50.78125,-46.38671875,-19.04296875
18.06640625,42.48046875,-40.52734375,-73.2421875
-49.31640625,-14.16015625,-46.875,-85.44921875
-104.98046875,-110.3515625,-47.8515625,-42.48046875
-96.6796875,-145.01953125,-42.48046875,3.90625
-21.484375,-54.19921875,-41.9921875,-21.97265625
23.92578125,51.26953125,-47.8515625,-85.9375
-26.85546875,9.765625,-51.26953125,-100.09765625
-104.4921875,-90.8203125,-51.26953125,-66.89453125
-115.72265625,-126.46484375,-41.015625,-15.625
-22.4609375,-65.4296875,-35.15625,-14.16015625
34.1796875,31.25,-43.9453125,-65.91796875
-15.13671875,19.53125,-49.8046875,-91.796875
-97.65625,-93.26171875,-53.7109375,-59.08203125
-123.53515625,-164.0625,-49.8046875,-9.27734375
-41.015625,-87.890625,-39.55078125,-12.20703125
22.4609375,19.53125,-37.109375,-60.546875
-11.71875,18.06640625,-46.875,-92.28515625
-89.35546875,-73.2421875,-50.78125,-69.3359375
-123.53515625,-134.27734375,-48.33984375,-14.16015625
-57.6171875,-80.56640625,-48.33984375,-4.39453125
4.8828125,7.32421875,-51.7578125,-61.5234375
-9.27734375,23.92578125,-56.640625,-99.12109375
-84.9609375,-53.22265625,-64.94140625,-76.66015625
-127.9296875,-138.671875,-62.01171875,-36.1328125
-63.96484375,-111.81640625,-50.78125,-19.53125
15.13671875,6.34765625,-50.29296875,-53.7109375
9.765625,55.17578125,-52.24609375,-98.14453125
-70.3125,-35.15625,-58.10546875,-81.54296875
-118.1640625,-135.25390625,-56.15234375,-25.390625
-72.265625,-112.3046875,-45.8984375,-5.859375
0.0,7.32421875,-47.36328125,-47.36328125
3.90625,44.921875,-53.7109375,-93.26171875
-63.4765625,-44.43359375,-52.734375,-76.171875
-110.3515625,-132.32421875,-52.24609375,-22.94921875
-78.61328125,-131.8359375,-47.8515625,8.30078125
5.37109375,-18.5546875,-41.9921875,-27.34375
16.11328125,44.921875,-42.48046875,-88.8671875
-61.03515625,-11.23046875,-49.8046875,-92.7734375
-117.1875,-98.14453125,-51.26953125,-38.57421875
-98.14453125,-131.34765625,-42.96875,8.7890625
-7.32421875,-33.203125,-38.0859375,-22.94921875
25.390625,56.15234375,-38.0859375,-79.1015625
-41.9921875,14.16015625,-48.33984375,-84.47265625
-105.46875,-100.5859375,-55.6640625,-39.55078125
-96.6796875,-142.08984375,-50.78125,-2.9296875
1.46484375,-39.0625,-45.8984375,-21.97265625
51.7578125,60.546875,-43.45703125,-66.89453125
-14.16015625,24.90234375,-49.8046875,-79.1015625
-93.26171875,-84.9609375,-47.36328125,-32.2265625
-107.91015625,-136.23046875,-41.50390625,18.5546875
-25.87890625,-55.6640625,-45.41015625,-1.953125
31.25,39.55078125,-40.0390625,-60.05859375
-14.16015625,22.4609375,-35.15625,-82.03125
-97.65625,-68.84765625,-44.43359375,-54.19921875
-117.67578125,-137.6953125,-47.36328125,-12.6953125
-34.66796875,-80.56640625,-37.109375,-9.27734375
22.94921875,23.92578125,-40.0390625,-58.59375
-13.671875,35.15625,-49.8046875,-93.26171875
-86.42578125,-62.01171875,-55.6640625,-63.4765625
-114.2578125,-148.92578125,-53.22265625,-9.765625
-45.8984375,-95.21484375,-45.41015625,-0.48828125
22.4609375,19.04296875,-42.96875,-42.48046875
-2.44140625,36.1328125,-47.36328125,-79.58984375
-77.1484375,-59.08203125,-49.31640625,-60.05859375
-105.46875,-133.30078125,-44.921875,-4.8828125
-45.41015625,-82.51953125,-38.0859375,8.30078125
20.01953125,20.5078125,-38.0859375,-41.50390625
10.7421875,41.50390625,-44.921875,-84.47265625
-61.03515625,-33.203125,-49.31640625,-66.40625
-106.4453125,-103.02734375,-51.7578125,-20.01953125
-56.640625,-92.28515625,-46.875,-3.90625
23.92578125,3.41796875,-44.921875,-38.57421875
24.90234375,49.31640625,-47.8515625,-86.42578125
-60.05859375,-28.80859375,-48.33984375,-84.47265625
-110.3515625,-117.1875,-44.921875,-36.1328125
-79.1015625,-119.62890625,-42.96875,-8.7890625
-0.9765625,-12.6953125,-42.96875,-38.57421875
18.06640625,61.03515625,-44.921875,-77.63671875
-54.6875,-7.8125,-47.8515625,-78.125
-108.88671875,-114.2578125,-42.96875,-32.71484375
-87.40234375,-126.46484375,-39.0625,7.8125
2.9296875,-22.4609375,-44.921875,-17.08984375
33.203125,40.52734375,-49.31640625,-72.75390625
-38.0859375,-16.6015625,-50.78125,-91.30859375
-95.703125,-101.07421875,-51.7578125,-42.48046875
-91.796875,-131.34765625,-48.828125,5.859375
-8.30078125,-37.109375,-46.38671875,-20.99609375
35.15625,55.6640625,-50.29296875,-79.1015625
-32.2265625,13.18359375,-53.7109375,-95.703125
-100.5859375,-89.84375,-55.17578125,-49.8046875
-107.421875,-144.04296875,-52.24609375,3.90625
-22.4609375,-71.2890625,-42.96875,-16.6015625
25.390625,28.80859375,-43.45703125,-73.2421875
-25.390625,18.06640625,-56.15234375,-102.05078125
-96.19140625,-84.9609375,-60.05859375,-72.265625
-115.234375,-141.11328125,-50.78125,-13.671875
-33.69140625,-63.4765625,-45.8984375,-14.16015625
25.390625,38.0859375,-42.48046875,-64.453125
-12.6953125,41.50390625,-42.96875,-85.44921875
-82.51953125,-56.640625,-50.29296875,-49.8046875
-107.421875,-142.08984375,-48.33984375,2.44140625
-36.62109375,-95.21484375,-41.015625,5.37109375
28.3203125,9.765625,-43.9453125,-51.26953125
11.71875,35.15625,-52.734375,-88.37890625
-69.82421875,-53.7109375,-55.6640625,-61.03515625
-115.72265625,-136.71875,-44.43359375,-10.7421875
-62.5,-93.26171875,-37.59765625,-0.48828125
14.6484375,15.625,-36.62109375,-46.38671875
11.23046875,42.48046875,-33.203125,-82.51953125
-74.21875,-56.15234375,-42.96875,-66.89453125
-115.72265625,-136.23046875,-47.36328125,-15.13671875
-68.84765625,-111.81640625,-36.62109375,12.6953125
1.953125,-5.37109375,-34.66796875,-31.25
6.34765625,42.48046875,-42.48046875,-84.47265625
-73.73046875,-42.48046875,-43.45703125,-76.66015625
-127.44140625,-124.0234375,-40.52734375,-24.4140625
-88.8671875,-125.48828125,-33.69140625,6.8359375
-5.37109375,-24.4140625,-28.3203125,-30.76171875
13.671875,45.41015625,-32.71484375,-83.0078125
-53.22265625,-20.01953125,-39.0625,-76.66015625
-98.14453125,-119.62890625,-39.55078125,-19.04296875
-76.66015625,-136.23046875,-38.0859375,19.04296875
0.0,-28.3203125,-40.0390625,-21.97265625
25.390625,49.31640625,-41.50390625,-74.70703125
-44.921875,-6.8359375,-44.921875,-75.68359375
-107.91015625,-97.16796875,-50.29296875,-33.203125
-104.4921875,-122.0703125,-48.828125,10.25390625
-22.94921875,-35.64453125,-40.52734375,-12.6953125
18.5546875,38.57421875,-42.96875,-78.61328125
-37.59765625,-5.37109375,-54.6875,-99.12109375
-105.95703125,-102.05078125,-55.6640625,-51.26953125
-112.3046875,-144.04296875,-47.36328125,4.8828125
-30.76171875,-59.08203125,-43.9453125,-5.37109375
15.13671875,33.69140625,-48.33984375,-59.5703125
-21.97265625,19.04296875,-46.38671875,-74.70703125
-90.8203125,-75.1953125,-41.015625,-39.55078125
-113.76953125,-135.7421875,-37.59765625,4.39453125
-36.1328125,-54.6875,-38.57421875,-2.44140625
20.01953125,50.78125,-46.38671875,-59.08203125
-10.25390625,31.25,-48.828125,-89.35546875
-83.49609375,-77.1484375,-51.26953125,-55.17578125
-116.2109375,-156.73828125,-55.17578125,-11.23046875
-45.41015625,-96.19140625,-51.26953125,-14.6484375
22.4609375,13.671875,-43.9453125,-55.17578125
-2.9296875,31.73828125,-43.45703125,-88.37890625
-85.44921875,-56.15234375,-56.15234375,-67.3828125
-121.09375,-137.6953125,-57.6171875,-9.765625
-62.5,-103.515625,-45.8984375,-1.953125
9.765625,1.46484375,-41.015625,-52.24609375
2.44140625,41.015625,-42.96875,-90.33203125
-74.21875,-49.31640625,-47.8515625,-66.89453125
-109.375,-141.11328125,-39.0625,-5.37109375
-59.5703125,-123.53515625,-35.15625,17.578125
11.71875,-12.6953125,-40.0390625,-29.78515625
14.6484375,44.43359375,-42.48046875,-83.984375
-56.640625,-35.15625,-44.43359375,-81.54296875
-105.46875,-129.8828125,-50.78125,-36.1328125
-77.1484375,-127.44140625,-55.17578125,-6.34765625
1.46484375,-12.6953125,-46.38671875,-40.52734375
14.6484375,44.921875,-42.96875,-90.8203125
-60.546875,-20.5078125,-47.8515625,-81.0546875
-115.234375,-98.6328125,-53.7109375,-36.1328125
-95.703125,-125.9765625,-53.22265625,-11.71875
-10.7421875,-37.59765625,-43.45703125,-37.59765625
17.08984375,41.015625,-43.9453125,-90.8203125
-52.24609375,-14.6484375,-52.24609375,-103.515625
-105.95703125,-106.4453125,-57.6171875,-52.734375
-103.515625,-143.5546875,-56.15234375,-6.34765625
-21.484375,-48.33984375,-50.78125,-25.390625
23.92578125,39.55078125,-52.24609375,-76.171875
-34.1796875,-1.46484375,-55.17578125,-94.7265625
-98.6328125,-93.26171875,-54.6875,-52.24609375
-97.16796875,-137.6953125,-45.8984375,0.48828125
-12.6953125,-45.41015625,-39.55078125,-18.06640625
29.296875,46.875,-41.9921875,-72.75390625
-15.13671875,16.6015625,-47.8515625,-91.796875
-83.49609375,-72.265625,-51.26953125,-44.43359375
-101.5625,-130.37109375,-45.41015625,11.23046875
-24.90234375,-73.73046875,-40.0390625,3.41796875
31.25,28.80859375,-42.96875,-47.36328125
-8.30078125,32.2265625,-50.29296875,-79.58984375
-83.984375,-68.84765625,-49.8046875,-53.7109375
-110.83984375,-147.94921875,-43.45703125,0.0
-47.36328125,-90.33203125,-38.57421875,-3.90625
13.18359375,22.4609375,-36.1328125,-60.05859375
-11.23046875,50.29296875,-45.8984375,-98.14453125
-95.21484375,-54.19921875,-55.17578125,-76.171875
-128.90625,-135.7421875,-48.828125,-15.625
-72.265625,-85.9375,-49.31640625,-5.37109375
-3.41796875,4.39453125,-49.8046875,-57.12890625
-5.859375,37.59765625,-51.7578125,-96.19140625
-82.51953125,-46.875,-56.640625,-71.77734375
-120.60546875,-145.5078125,-51.7578125,-19.53125
-77.63671875,-134.765625,-50.29296875,-4.39453125
-1.953125,-24.4140625,-55.6640625,-46.38671875
2.9296875,28.3203125,-58.10546875,-94.7265625
-74.70703125,-41.9921875,-57.12890625,-83.984375
-118.1640625,-118.1640625,-56.640625,-26.3671875
-85.44921875,-121.58203125,-47.36328125,6.34765625
-7.8125,-21.97265625,-37.59765625,-25.390625
7.32421875,41.015625,-39.0625,-85.9375
-64.94140625,-36.1328125,-51.26953125,-90.8203125
-114.2578125,-124.0234375,-54.6875,-31.73828125
-95.703125,-141.6015625,-45.8984375,0.0
-7.8125,-51.26953125,-39.0625,-32.2265625
25.390625,34.1796875,-39.55078125,-79.58984375
-41.50390625,-16.11328125,-45.8984375,-88.37890625
-96.6796875,-113.76953125,-47.36328125,-37.59765625
-83.0078125,-140.13671875,-46.875,19.53125
2.44140625,-37.109375,-42.96875,-0.48828125
35.15625,55.6640625,-40.0390625,-71.77734375
-28.3203125,9.27734375,-45.8984375,-90.33203125
-106.93359375,-99.609375,-54.19921875,-50.29296875
-115.234375,-147.4609375,-52.24609375,-8.30078125
-34.66796875,-59.5703125,-48.828125,-15.13671875
15.13671875,30.76171875,-49.31640625,-65.4296875
-29.296875,1.46484375,-50.29296875,-85.44921875
-101.5625,-87.40234375,-51.7578125,-47.8515625
-113.28125,-143.06640625,-52.734375,-5.37109375
-35.15625,-79.1015625,-54.19921875,-17.08984375
21.97265625,20.5078125,-53.7109375,-68.359375
-17.578125,23.92578125,-58.10546875,-97.16796875
-95.703125,-62.01171875,-60.05859375,-68.359375
-117.1875,-139.6484375,-51.7578125,-11.71875
-40.52734375,-96.6796875,-47.8515625,-2.9296875
24.4140625,7.8125,-46.875,-51.7578125
0.9765625,21.97265625,-46.38671875,-86.42578125
-76.171875,-72.75390625,-43.9453125,-57.12890625
-106.93359375,-145.99609375,-36.62109375,2.9296875
-41.50390625,-92.7734375,-33.203125,15.13671875
20.99609375,15.625,-35.64453125,-42.48046875
5.37109375,41.50390625,-43.9453125,-87.40234375
-68.84765625,-45.8984375,-50.78125,-66.89453125
-119.140625,-120.1171875,-51.26953125,-14.16015625
-76.171875,-95.21484375,-45.8984375,5.859375
1.953125,-2.9296875,-41.50390625,-35.15625
6.8359375,42.96875,-42.96875,-82.03125
-65.91796875,-29.78515625,-47.8515625,-77.1484375
-117.67578125,-122.0703125,-49.31640625,-29.78515625
-82.51953125,-125.48828125,-45.8984375,-7.8125
1.46484375,-17.08984375,-43.45703125,-48.33984375
19.04296875,49.31640625,-40.52734375,-98.14453125
-57.6171875,-19.04296875,-46.875,-90.33203125
-114.74609375,-110.83984375,-51.26953125,-35.15625
-92.28515625,-128.41796875,-42.96875,5.37109375
-5.37109375,-21.484375,-38.0859375,-23.4375
21.97265625,55.17578125,-43.9453125,-82.51953125
-41.50390625,-7.8125,-43.45703125,-85.9375
-97.65625,-108.3984375,-41.50390625,-34.1796875
-93.26171875,-131.34765625,-40.0390625,6.8359375
-9.765625,-31.25,-33.69140625,-13.18359375
34.1796875,48.828125,-40.0390625,-63.96484375
-18.5546875,13.18359375,-51.7578125,-68.84765625
-90.8203125,-90.8203125,-50.78125,-28.3203125
-108.88671875,-146.97265625,-38.0859375,9.27734375
-34.1796875,-62.98828125,-34.66796875,-13.671875
19.53125,32.71484375,-45.41015625,-71.77734375
-28.3203125,7.8125,-42.96875,-80.078125
-109.375,-92.7734375,-38.0859375,-52.734375
-125.48828125,-160.15625,-42.48046875,-15.625
-49.31640625,-79.1015625,-42.48046875,-20.99609375
11.71875,32.71484375,-42.48046875,-74.21875
-18.5546875,22.4609375,-46.38671875,-104.00390625
-95.21484375,-79.58984375,-50.29296875,-77.63671875
-124.0234375,-148.4375,-48.33984375,-20.99609375
-50.29296875,-83.984375,-43.45703125,-17.08984375
22.94921875,27.34375,-43.45703125,-67.3828125
-3.41796875,40.0390625,-48.33984375,-103.02734375
-88.8671875,-58.10546875,-54.6875,-77.63671875
-122.55859375,-134.765625,-50.78125,-17.578125
-56.15234375,-97.65625,-45.41015625,0.48828125
16.6015625,5.37109375,-44.43359375,-39.0625
8.30078125,48.828125,-45.8984375,-77.1484375
-62.5,-38.0859375,-50.29296875,-60.05859375
-102.05078125,-133.30078125,-41.9921875,-3.41796875
-52.24609375,-106.93359375,-32.71484375,22.4609375
26.3671875,2.44140625,-32.2265625,-23.92578125
23.4375,52.734375,-35.15625,-76.66015625
-55.17578125,-28.80859375,-38.57421875,-64.94140625
-101.07421875,-126.953125,-39.0625,-19.04296875
-66.40625,-120.60546875,-39.55078125,1.953125
11.71875,-0.48828125,-38.57421875,-31.73828125
24.90234375,58.10546875,-40.52734375,-82.51953125
-53.7109375,-22.4609375,-48.33984375,-81.0546875
-112.3046875,-106.93359375,-48.33984375,-30.76171875
-95.703125,-129.8828125,-46.38671875,0.48828125
-11.23046875,-34.1796875,-46.875,-35.64453125
11.71875,47.36328125,-45.8984375,-90.8203125
-61.5234375,-3.41796875,-45.41015625,-93.26171875
-109.375,-103.02734375,-43.9453125,-42.96875
-101.5625,-144.04296875,-39.55078125,-4.8828125
-25.390625,-51.7578125,-40.0390625,-26.85546875
16.11328125,42.96875,-42.48046875,-80.078125
-42.48046875,10.25390625,-43.9453125,-97.16796875
-107.91015625,-95.703125,-50.29296875,-47.8515625
-109.86328125,-145.01953125,-50.29296875,3.90625
-30.76171875,-54.19921875,-42.96875,-14.6484375
20.01953125,28.3203125,-44.921875,-70.80078125
-24.90234375,9.765625,-52.734375,-87.890625
-89.84375,-72.265625,-54.6875,-41.015625
-100.5859375,-140.13671875,-52.734375,8.30078125
-21.484375,-73.73046875,-45.41015625,-3.41796875
34.66796875,34.66796875,-42.96875,-61.5234375
-7.8125,25.87890625,-47.8515625,-90.33203125
-83.49609375,-74.21875,-49.31640625,-51.26953125
-109.375,-134.765625,-49.8046875,-3.90625
-44.43359375,-72.75390625,-47.8515625,-4.8828125
13.18359375,33.69140625,-46.38671875,-60.05859375
-11.71875,45.41015625,-49.31640625,-104.4921875
-89.84375,-60.05859375,-52.734375,-75.68359375
-125.9765625,-141.11328125,-56.15234375,-20.5078125
-57.12890625,-93.75,-54.6875,-10.7421875
12.6953125,0.0,-56.15234375,-58.59375
-0.48828125,39.0625,-62.01171875,-98.14453125
-76.66015625,-38.57421875,-56.640625,-80.078125
-121.58203125,-135.7421875,-52.734375,-28.80859375
-64.94140625,-110.83984375,-43.9453125,-4.39453125
5.859375,3.41796875,-41.015625,-46.38671875
-5.37109375,59.08203125,-47.36328125,-92.7734375
-71.2890625,-27.34375,-46.875,-72.265625
-103.515625,-126.46484375,-47.8515625,-10.25390625
-70.80078125,-125.9765625,-36.62109375,7.32421875
1.953125,-23.92578125,-31.25,-38.0859375
15.13671875,42.48046875,-44.921875,-94.23828125
-51.7578125,-21.484375,-62.98828125,-90.33203125
-103.02734375,-113.28125,-66.40625,-29.78515625
-83.49609375,-133.30078125,-48.828125,7.32421875
2.44140625,-31.25,-37.109375,-32.2265625
30.2734375,44.43359375,-39.55078125,-98.6328125
-42.96875,-1.953125,-44.43359375,-108.3984375
-107.91015625,-86.9140625,-51.7578125,-60.05859375
-102.5390625,-134.765625,-54.6875,-18.5546875
-17.578125,-41.9921875,-42.96875,-39.55078125
24.4140625,49.8046875,-41.015625,-83.49609375
-32.2265625,9.765625,-50.29296875,-93.26171875
-96.6796875,-84.9609375,-56.640625,-51.26953125
-101.5625,-140.13671875,-53.7109375,-1.953125
-20.5078125,-49.31640625,-47.8515625,-26.85546875
20.5078125,48.828125,-48.828125,-87.40234375
-39.0625,17.578125,-50.78125,-105.46875
-105.95703125,-83.0078125,-47.8515625,-60.546875
-122.0703125,-125.48828125,-45.41015625,-4.8828125
-54.19921875,-50.78125,-44.921875,-11.71875
5.37109375,23.4375,-46.38671875,-58.59375
-25.390625,20.01953125,-50.78125,-85.9375
-97.16796875,-72.265625,-54.19921875,-51.7578125
-114.2578125,-146.97265625,-52.24609375,6.34765625
-33.203125,-87.890625,-44.43359375,16.11328125
31.25,20.5078125,-41.50390625,-31.25
9.765625,36.62109375,-41.50390625,-70.3125
-64.453125,-55.6640625,-46.875,-47.36328125
-99.12109375,-137.6953125,-49.31640625,2.9296875
-35.64453125,-85.44921875,-45.8984375,4.8828125
29.78515625,28.3203125,-43.9453125,-37.59765625
17.08984375,56.640625,-38.57421875,-69.3359375
-64.453125,-45.8984375,-43.45703125,-58.10546875
-107.421875,-134.27734375,-45.8984375,-11.23046875
-61.03515625,-99.609375,-44.921875,-4.39453125
7.32421875,0.0,-46.38671875,-53.7109375
3.41796875,43.9453125,-45.41015625,-96.19140625
-85.9375,-41.50390625,-44.43359375,-80.078125
-133.7890625,-134.27734375,-46.875,-23.92578125
-89.35546875,-127.44140625,-45.41015625,1.46484375
-8.30078125,-16.6015625,-46.38671875,-44.43359375
10.25390625,53.7109375,-49.8046875,-90.8203125
-65.4296875,-12.20703125,-52.734375,-83.0078125
-121.09375,-109.86328125,-54.6875,-34.66796875
-97.16796875,-132.32421875,-45.41015625,2.44140625
-16.6015625,-18.5546875,-38.0859375,-34.66796875
11.23046875,61.5234375,-44.43359375,-90.8203125
-53.22265625,-10.7421875,-47.36328125,-89.84375
-110.3515625,-102.05078125,-49.31640625,-37.59765625
-101.07421875,-128.90625,-50.78125,4.39453125
-13.671875,-40.0390625,-52.734375,-19.04296875
26.85546875,41.50390625,-50.29296875,-72.265625
-36.1328125,-1.953125,-49.31640625,-89.35546875
-101.5625,-99.609375,-48.33984375,-41.9921875
-108.88671875,-139.16015625,-45.41015625,5.37109375
-26.3671875,-59.08203125,-41.9921875,-17.578125
25.87890625,33.69140625,-41.015625,-75.68359375
-27.83203125,17.578125,-41.50390625,-105.46875
-104.98046875,-96.19140625,-48.828125,-71.77734375
-118.65234375,-148.4375,-52.24609375,-16.6015625
-40.0390625,-50.29296875,-42.48046875,-20.01953125
5.859375,39.0625,-45.41015625,-74.21875
-37.109375,17.578125,-53.7109375,-107.91015625
-109.375,-84.9609375,-57.12890625,-77.63671875
-130.37109375,-157.2265625,-51.26953125,-21.484375
-51.7578125,-87.890625,-44.921875,-17.08984375
13.18359375,20.99609375,-47.8515625,-67.87109375
-8.30078125,25.390625,-51.7578125,-99.12109375
-82.03125,-64.94140625,-55.17578125,-72.75390625
-113.28125,-134.27734375,-46.38671875,-12.20703125
-44.921875,-102.05078125,-34.66796875,3.90625
28.3203125,-0.48828125,-37.59765625,-41.50390625
15.625,38.57421875,-45.8984375,-77.63671875
-68.84765625,-46.38671875,-51.7578125,-59.5703125
-108.88671875,-131.34765625,-48.33984375,-13.671875
-56.15234375,-100.5859375,-39.55078125,3.90625
20.99609375,7.8125,-39.0625,-38.57421875
22.94921875,44.921875,-44.43359375,-93.26171875
-54.19921875,-39.0625,-46.38671875,-83.49609375
-108.3984375,-120.1171875,-48.33984375,-36.62109375
-72.265625,-105.46875,-48.828125,-9.27734375
10.7421875,-8.30078125,-45.41015625,-38.0859375
15.625,41.9921875,-51.26953125,-89.35546875
-62.01171875,-25.87890625,-52.24609375,-82.51953125
-115.72265625,-117.67578125,-50.78125,-35.15625
-93.26171875,-133.7890625,-53.22265625,0.0
-9.765625,-31.25,-43.45703125,-23.92578125
3.90625,44.921875,-39.0625,-90.8203125
-72.75390625,-22.94921875,-47.36328125,-102.5390625
-119.140625,-115.72265625,-46.38671875,-47.8515625
-100.09765625,-131.8359375,-39.55078125,-5.37109375
-21.97265625,-36.62109375,-44.43359375,-30.2734375
15.13671875,39.0625,-50.78125,-90.33203125
-46.38671875,-13.18359375,-50.78125,-98.14453125
-110.83984375,-107.91015625,-51.7578125,-48.33984375
-109.86328125,-149.4140625,-53.7109375,-2.9296875
-21.484375,-60.546875,-46.38671875,-10.25390625
28.80859375,34.66796875,-42.96875,-64.453125
-19.04296875,10.7421875,-49.8046875,-88.8671875
-86.9140625,-84.9609375,-55.6640625,-52.24609375
-112.3046875,-152.34375,-53.7109375,-5.37109375
-32.2265625,-80.56640625,-50.29296875,-15.13671875
28.80859375,38.0859375,-51.26953125,-69.3359375
-15.13671875,39.55078125,-51.7578125,-94.7265625
-92.28515625,-66.89453125,-51.26953125,-58.10546875
-110.3515625,-142.578125,-47.36328125,-1.953125
-46.38671875,-84.47265625,-40.52734375,-4.39453125
6.8359375,19.04296875,-41.50390625,-59.5703125
-15.625,24.4140625,-47.36328125,-95.703125
-87.890625,-66.40625,-51.26953125,-66.40625
-117.1875,-135.25390625,-52.24609375,-19.53125
-52.24609375,-90.33203125,-48.828125,-15.625
15.625,13.671875,-48.33984375,-55.6640625
3.90625,44.43359375,-52.734375,-89.35546875
-73.2421875,-37.109375,-56.640625,-70.3125
-113.28125,-124.0234375,-53.22265625,-21.484375
-61.5234375,-111.328125,-49.31640625,0.48828125
11.71875,-8.30078125,-48.33984375,-35.15625
7.32421875,43.9453125,-53.7109375,-82.03125
-74.70703125,-36.1328125,-53.22265625,-73.2421875
-116.2109375,-130.859375,-45.41015625,-21.484375
-77.63671875,-124.51171875,-45.8984375,-0.9765625
0.48828125,-8.7890625,-43.9453125,-37.59765625
14.6484375,47.36328125,-43.9453125,-92.7734375
-49.8046875,-25.87890625,-49.31640625,-91.30859375
-98.6328125,-110.83984375,-43.45703125,-26.85546875
-77.63671875,-119.140625,-37.59765625,8.7890625
11.23046875,-13.671875,-38.57421875,-25.87890625
39.55078125,45.8984375,-43.9453125,-75.1953125
-34.66796875,-10.7421875,-49.31640625,-76.171875
-99.12109375,-89.35546875,-50.78125,-31.25
-83.49609375,-129.8828125,-42.48046875,16.11328125
-1.46484375,-49.31640625,-34.66796875,-7.8125
28.3203125,36.62109375,-36.62109375,-62.98828125
-35.15625,6.34765625,-44.921875,-81.0546875
-103.515625,-90.8203125,-53.7109375,-43.9453125
-104.4921875,-136.71875,-48.33984375,9.765625
-17.578125,-40.52734375,-40.52734375,1.46484375
33.69140625,53.22265625,-41.9921875,-51.26953125
-22.4609375,18.06640625,-48.828125,-70.3125
-95.21484375,-91.30859375,-50.78125,-31.25
-110.83984375,-139.6484375,-44.43359375,12.6953125
-31.25,-61.5234375,-41.9921875,-0.9765625
24.4140625,24.4140625,-43.45703125,-55.6640625
-18.06640625,18.5546875,-44.921875,-86.42578125
-89.84375,-75.1953125,-48.33984375,-61.5234375
-119.140625,-148.4375,-50.29296875,-21.97265625
-49.8046875,-88.8671875,-49.8046875,-27.34375
19.53125,23.92578125,-48.828125,-71.77734375
-6.8359375,42.96875,-54.19921875,-106.4453125
-86.9140625,-46.38671875,-59.08203125,-81.54296875
-118.65234375,-131.34765625,-56.15234375,-28.80859375
-54.6875,-100.09765625,-51.26953125,-20.5078125
8.30078125,4.8828125,-50.29296875,-64.453125
-3.41796875,36.1328125,-47.8515625,-95.21484375
-72.75390625,-52.24609375,-47.36328125,-72.265625
-110.3515625,-135.25390625,-51.26953125,-20.01953125
-56.640625,-103.515625,-44.921875,5.37109375
10.7421875,-0.9765625,-41.9921875,-41.015625
6.8359375,32.71484375,-48.828125,-94.7265625
-62.98828125,-39.55078125,-52.24609375,-77.1484375
-112.3046875,-130.37109375,-46.875,-22.4609375
-74.70703125,-122.55859375,-39.0625,6.34765625
2.44140625,-5.859375,-39.55078125,-30.76171875
13.671875,55.6640625,-42.48046875,-84.47265625
-55.6640625,-14.16015625,-40.52734375,-83.49609375
-107.91015625,-110.83984375,-42.96875,-39.0625
-85.44921875,-123.046875,-41.015625,-1.953125
0.48828125,-17.578125,-38.57421875,-34.1796875
23.92578125,49.31640625,-45.8984375,-95.703125
-54.6875,-18.06640625,-53.22265625,-99.12109375
-112.79296875,-114.2578125,-52.24609375,-51.7578125
-104.00390625,-151.85546875,-49.31640625,-14.6484375
-22.4609375,-56.15234375,-45.8984375,-34.66796875
15.13671875,43.9453125,-48.828125,-85.44921875
-54.19921875,2.44140625,-55.6640625,-97.16796875
-110.83984375,-100.5859375,-54.19921875,-51.26953125
-105.46875,-147.94921875,-52.734375,-1.953125
-25.390625,-62.98828125,-51.26953125,-19.53125
25.87890625,41.50390625,-44.921875,-74.70703125
-30.2734375,24.90234375,-50.29296875,-95.21484375
-102.5390625,-85.44921875,-57.12890625,-58.59375
-114.2578125,-151.85546875,-53.22265625,-4.8828125
-44.921875,-69.3359375,-48.828125,-13.18359375
10.7421875,27.83203125,-49.31640625,-64.94140625
-25.87890625,5.859375,-54.19921875,-94.23828125
-97.16796875,-83.49609375,-59.08203125,-65.91796875
-113.28125,-131.8359375,-55.17578125,-13.671875
-37.59765625,-72.75390625,-48.828125,-19.53125
21.484375,25.390625,-48.33984375,-67.3828125
-6.34765625,37.109375,-50.78125,-97.16796875
-88.37890625,-64.453125,-48.828125,-69.3359375
-125.48828125,-143.5546875,-43.45703125,-8.7890625
-52.24609375,-95.21484375,-40.0390625,-0.9765625
10.7421875,15.13671875,-45.8984375,-64.94140625
-17.08984375,44.43359375,-56.15234375,-119.140625
-87.890625,-49.31640625,-58.10546875,-97.16796875
-116.2109375,-139.16015625,-55.6640625,-38.57421875
-56.640625,-107.421875,-56.640625,-21.484375
20.01953125,8.7890625,-57.6171875,-53.7109375
22.4609375,49.31640625,-55.6640625,-81.0546875
-50.29296875,-30.76171875,-55.6640625,-65.91796875
-96.19140625,-113.28125,-58.10546875,-17.578125
-56.15234375,-103.515625,-52.24609375,14.16015625
18.5546875,-5.37109375,-52.24609375,-25.87890625
24.90234375,50.29296875,-60.546875,-81.0546875
-47.8515625,-12.6953125,-62.98828125,-67.87109375
-95.21484375,-104.98046875,-51.7578125,-15.13671875
-70.3125,-131.34765625,-46.38671875,8.7890625
17.08984375,-21.97265625,-45.8984375,-25.390625
37.59765625,68.359375,-42.48046875,-83.984375
-50.78125,0.0,-47.36328125,-93.75
-115.234375,-108.88671875,-53.22265625,-46.875
-98.14453125,-131.8359375,-46.875,-6.8359375
-12.6953125,-27.83203125,-36.1328125,-25.390625
17.578125,58.59375,-35.64453125,-69.82421875
-43.45703125,2.44140625,-40.0390625,-82.51953125
-100.5859375,-97.16796875,-43.45703125,-50.29296875
-99.609375,-129.39453125,-41.9921875,-8.30078125
-12.6953125,-42.96875,-38.0859375,-22.4609375
28.3203125,36.62109375,-42.96875,-76.171875
-22.94921875,1.953125,-44.43359375,-92.28515625
-80.078125,-84.9609375,-47.8515625,-44.921875
-89.84375,-137.20703125,-48.828125,17.08984375
-9.765625,-64.94140625,-46.38671875,8.7890625
35.64453125,35.64453125,-49.8046875,-52.24609375
-15.13671875,27.34375,-56.15234375,-83.49609375
-91.30859375,-77.63671875,-60.05859375,-53.7109375
-113.76953125,-147.4609375,-55.17578125,4.8828125
-40.52734375,-82.51953125,-46.875,13.18359375
22.4609375,12.6953125,-45.8984375,-38.0859375
-4.8828125,24.4140625,-54.19921875,-69.82421875
-85.9375,-67.3828125,-56.15234375,-51.7578125
-116.2109375,-144.53125,-49.8046875,-6.34765625
-46.38671875,-90.33203125,-40.52734375,-0.9765625
15.13671875,18.5546875,-39.0625,-52.24609375
-8.7890625,36.1328125,-43.45703125,-93.26171875
-88.37890625,-49.8046875,-48.828125,-77.63671875
-130.859375,-129.8828125,-49.8046875,-23.92578125
-71.77734375,-108.3984375,-47.8515625,-7.8125
5.859375,4.39453125,-44.43359375,-50.29296875
3.90625,48.828125,-47.8515625,-96.19140625
-70.3125,-41.9921875,-53.7109375,-82.51953125
-113.76953125,-133.7890625,-54.19921875,-22.4609375
-70.3125,-122.0703125,-57.12890625,0.9765625
8.30078125,-15.13671875,-55.17578125,-40.52734375
9.765625,47.36328125,-54.19921875,-90.33203125
-61.03515625,-30.76171875,-51.26953125,-80.56640625
-90.8203125,-120.60546875,-47.36328125,-10.25390625
-72.75390625,-109.375,-44.43359375,22.4609375
-8.30078125,-10.25390625,-42.48046875,-31.25
20.5078125,61.03515625,-47.8515625,-73.73046875
-53.7109375,1.46484375,-54.6875,-74.70703125
-118.1640625,-102.5390625,-59.5703125,-39.0625
-99.12109375,-118.65234375,-57.12890625,9.765625
-12.20703125,-4.39453125,-56.640625,-17.578125
15.13671875,81.0546875,-65.4296875,-89.84375
-47.8515625,29.296875,-71.77734375,-106.4453125
-112.3046875,-67.3828125,-80.078125,-73.73046875
-107.91015625,-115.72265625,-82.03125,-39.0625
-13.671875,-20.01953125,-74.70703125,-46.875
34.66796875,80.078125,-76.66015625,-106.4453125
-24.90234375,37.59765625,-74.21875,-125.48828125
-99.609375,-58.59375,-72.75390625,-77.63671875
-102.5390625,-107.91015625,-73.73046875,-28.80859375
-23.4375,-30.76171875,-65.91796875,-35.64453125
23.4375,61.03515625,-65.4296875,-85.9375
-18.06640625,45.41015625,-73.2421875,-108.88671875
-86.9140625,-56.640625,-72.75390625,-72.75390625
-108.3984375,-122.55859375,-62.98828125,-13.18359375
-35.64453125,-50.78125,-56.640625,-15.625
26.85546875,48.33984375,-53.22265625,-77.1484375
-3.41796875,52.734375,-53.7109375,-111.328125
-76.171875,-47.8515625,-52.734375,-73.73046875
-101.5625,-125.48828125,-49.8046875,-3.90625
-33.203125,-72.265625,-45.41015625,11.23046875
31.73828125,29.296875,-43.9453125,-37.59765625
7.8125,50.29296875,-51.26953125,-79.1015625
-65.91796875,-39.55078125,-57.12890625,-63.4765625
-101.5625,-122.0703125,-55.17578125,-12.6953125
-44.43359375,-88.37890625,-49.31640625,6.34765625
30.76171875,16.11328125,-47.8515625,-38.0859375
26.3671875,56.640625,-52.734375,-85.9375
-52.734375,-26.3671875,-55.6640625,-68.84765625
-97.16796875,-114.2578125,-54.6875,-13.671875
-56.15234375,-101.5625,-48.828125,8.7890625
12.20703125,0.0,-43.9453125,-33.69140625
17.578125,72.75390625,-47.36328125,-81.0546875
-58.59375,-0.9765625,-53.7109375,-73.73046875
-112.79296875,-114.74609375,-52.24609375,-24.90234375
-90.33203125,-130.37109375,-47.8515625,7.8125
-16.11328125,-27.34375,-43.45703125,-21.484375
11.71875,42.48046875,-44.43359375,-79.1015625
-53.7109375,-19.53125,-51.7578125,-91.30859375
-105.95703125,-103.02734375,-53.22265625,-46.875
-97.65625,-127.44140625,-53.22265625,-8.30078125
-15.13671875,-41.9921875,-54.19921875,-32.71484375
22.94921875,41.9921875,-52.24609375,-82.51953125
-40.0390625,1.46484375,-54.6875,-90.8203125
-100.5859375,-93.75,-57.6171875,-48.33984375
-103.02734375,-140.13671875,-52.24609375,2.9296875
-19.53125,-52.734375,-43.9453125,-17.578125
28.3203125,47.36328125,-42.48046875,-72.265625
-30.2734375,17.578125,-49.8046875,-90.8203125
-99.609375,-85.9375,-53.7109375,-55.17578125
-107.91015625,-140.13671875,-54.6875,-6.8359375
-25.87890625,-51.7578125,-52.734375,-20.99609375
29.296875,45.8984375,-50.29296875,-68.359375
-15.625,19.53125,-52.24609375,-90.33203125
-94.23828125,-81.0546875,-59.08203125,-59.08203125
-107.91015625,-134.765625,-58.59375,-2.44140625
-30.2734375,-73.73046875,-50.78125,-2.44140625
27.83203125,27.83203125,-47.8515625,-53.7109375
-3.90625,35.15625,-50.78125,-82.03125
-83.984375,-64.453125,-50.78125,-50.29296875
-109.375,-141.6015625,-49.8046875,-0.48828125
-38.0859375,-98.14453125,-46.38671875,-6.8359375
25.390625,20.99609375,-41.50390625,-55.17578125
10.7421875,62.01171875,-44.43359375,-87.890625
-56.15234375,-30.2734375,-45.8984375,-58.10546875
-86.42578125,-125.48828125,-44.921875,0.48828125
-48.828125,-89.35546875,-43.9453125,-1.953125
19.04296875,26.85546875,-42.96875,-48.828125
30.2734375,62.01171875,-47.8515625,-78.125
-54.6875,-23.4375,-59.08203125,-70.3125
-104.98046875,-113.76953125,-57.6171875,-20.5078125
-62.5,-105.46875,-45.8984375,-0.9765625
12.20703125,0.48828125,-44.43359375,-57.6171875
14.6484375,51.7578125,-49.8046875,-104.98046875
-62.5,-21.484375,-55.6640625,-90.8203125
-112.79296875,-105.46875,-54.6875,-38.0859375
-88.37890625,-120.1171875,-48.33984375,-1.46484375
0.0,-26.3671875,-42.48046875,-27.83203125
16.6015625,57.6171875,-48.828125,-83.0078125
-56.15234375,1.46484375,-56.15234375,-91.30859375
-110.83984375,-108.88671875,-54.19921875,-51.7578125
-102.5390625,-139.16015625,-48.33984375,-17.578125
-21.97265625,-33.203125,-42.96875,-41.015625
13.18359375,47.8515625,-43.9453125,-95.21484375
-45.8984375,-4.8828125,-53.22265625,-99.609375
-106.93359375,-98.14453125,-56.15234375,-43.9453125
-98.14453125,-137.6953125,-45.41015625,17.08984375
-13.671875,-41.015625,-38.57421875,2.9296875
22.94921875,41.50390625,-43.45703125,-62.5
-33.203125,4.39453125,-49.31640625,-83.984375
-96.19140625,-77.63671875,-55.17578125,-48.33984375
-109.86328125,-138.671875,-57.12890625,-6.8359375
-26.85546875,-67.3828125,-50.78125,-15.13671875
27.34375,32.2265625,-51.7578125,-66.89453125
-17.08984375,21.484375,-60.05859375,-88.8671875
-88.37890625,-75.1953125,-64.94140625,-57.12890625
-109.375,-151.85546875,-57.6171875,-11.23046875
-31.73828125,-83.0078125,-47.36328125,-12.20703125
21.484375,31.73828125,-45.41015625,-61.03515625
-14.16015625,42.96875,-44.43359375,-88.37890625
-85.44921875,-55.17578125,-45.41015625,-55.6640625
-113.28125,-128.90625,-43.45703125,1.46484375
-57.12890625,-69.82421875,-39.55078125,2.9296875
4.8828125,27.83203125,-42.96875,-49.31640625
-5.859375,50.29296875,-41.015625,-81.0546875
-83.984375,-43.45703125,-43.45703125,-64.453125
-122.55859375,-139.16015625,-49.31640625,-14.16015625
-61.03515625,-108.88671875,-43.45703125,11.71875
11.23046875,4.8828125,-37.109375,-30.76171875
12.6953125,42.96875,-39.0625,-83.0078125
-61.5234375,-37.109375,-43.9453125,-66.89453125
-116.69921875,-116.2109375,-46.875,-15.13671875
-75.68359375,-102.5390625,-45.8984375,4.39453125
5.37109375,-0.9765625,-43.45703125,-33.69140625
22.4609375,45.41015625,-49.8046875,-84.47265625
-51.7578125,-31.73828125,-52.734375,-72.75390625
-107.91015625,-120.60546875,-50.29296875,-20.01953125
-72.75390625,-130.37109375,-50.78125,9.765625
12.20703125,-31.25,-45.41015625,-21.97265625
37.59765625,44.43359375,-37.109375,-68.359375
-27.34375,-9.27734375,-41.9921875,-69.82421875
-88.37890625,-114.2578125,-51.26953125,-23.92578125
-84.9609375,-145.99609375,-52.24609375,8.30078125
7.32421875,-31.25,-43.9453125,-12.20703125
39.55078125,64.94140625,-36.62109375,-54.19921875
-57.6171875,0.48828125,-39.55078125,-81.54296875
-125.0,-115.72265625,-40.52734375,-44.43359375
-110.83984375,-155.2734375,-32.71484375,10.7421875
-23.92578125,-57.12890625,-26.3671875,-7.8125
28.3203125,35.64453125,-30.2734375,-67.3828125
-22.4609375,-1.953125,-32.71484375,-91.796875
-96.19140625,-106.4453125,-36.62109375,-52.734375
-111.328125,-163.0859375,-41.015625,0.0
-24.90234375,-78.61328125,-38.57421875,-5.859375
34.66796875,31.73828125,-41.50390625,-56.640625
-9.27734375,21.97265625,-44.921875,-77.63671875
-83.0078125,-76.66015625,-48.828125,-45.8984375
-104.98046875,-151.3671875,-48.828125,4.8828125
-29.296875,-90.8203125,-42.96875,4.39453125
36.1328125,22.4609375,-38.57421875,-45.41015625
8.30078125,35.64453125,-41.50390625,-74.70703125
-71.77734375,-67.87109375,-49.8046875,-44.921875
-105.95703125,-153.80859375,-47.36328125,3.41796875
-41.50390625,-100.09765625,-52.24609375,4.8828125
28.80859375,9.27734375,-50.78125,-36.1328125
9.27734375,31.25,-42.96875,-76.171875
-73.2421875,-64.94140625,-47.8515625,-64.94140625
-113.28125,-149.90234375,-49.31640625,-9.765625
-57.6171875,-110.3515625,-44.43359375,10.7421875
17.08984375,3.90625,-41.50390625,-34.66796875
11.23046875,53.22265625,-43.9453125,-76.171875
-71.77734375,-28.3203125,-52.24609375,-69.82421875
-117.1875,-126.46484375,-50.29296875,-18.06640625
-66.40625,-119.62890625,-43.45703125,6.34765625
5.859375,-0.48828125,-45.8984375,-40.0390625
9.27734375,56.15234375,-46.875,-87.890625
-63.4765625,-20.01953125,-46.875,-77.63671875
-121.09375,-117.67578125,-45.41015625,-22.4609375
-97.65625,-132.8125,-49.31640625,-0.9765625
-7.32421875,-12.6953125,-48.33984375,-41.015625
22.94921875,69.82421875,-42.96875,-78.61328125
-51.26953125,-4.8828125,-50.29296875,-77.63671875
-114.74609375,-107.421875,-57.6171875,-35.64453125
-101.5625,-130.859375,-53.22265625,3.41796875
-12.6953125,-36.1328125,-49.8046875,-26.85546875
29.78515625,54.19921875,-45.41015625,-72.75390625
-34.1796875,9.27734375,-48.33984375,-74.70703125
-111.81640625,-109.375,-61.5234375,-30.2734375
-108.88671875,-163.57421875,-57.12890625,7.8125
-13.671875,-47.8515625,-39.55078125,-24.90234375
29.78515625,62.01171875,-38.0859375,-85.9375
-30.76171875,27.34375,-47.8515625,-93.75
-102.05078125,-83.0078125,-52.734375,-50.78125
-115.72265625,-149.90234375,-47.8515625,-7.8125
-30.2734375,-63.96484375,-44.921875,-16.11328125
27.34375,41.50390625,-47.36328125,-64.94140625
-24.4140625,15.625,-55.17578125,-88.37890625
-100.09765625,-91.30859375,-55.6640625,-50.78125
-119.62890625,-159.1796875,-51.7578125,-9.27734375
-42.96875,-82.03125,-46.38671875,-14.6484375
20.5078125,38.57421875,-41.9921875,-59.5703125
-8.7890625,37.109375,-45.41015625,-92.28515625
-86.9140625,-67.3828125,-51.26953125,-61.5234375
-114.74609375,-140.625,-46.875,-5.37109375
-42.48046875,-93.26171875,-40.0390625,-4.8828125
23.92578125,21.484375,-39.0625,-62.98828125
7.8125,61.03515625,-42.96875,-98.14453125
-76.66015625,-51.26953125,-50.29296875,-72.265625
-125.48828125,-155.76171875,-52.734375,-24.4140625
-67.3828125,-115.234375,-50.78125,-14.6484375
7.8125,8.30078125,-46.38671875,-60.546875
5.37109375,50.29296875,-45.8984375,-97.65625
-69.82421875,-47.36328125,-47.36328125,-75.68359375
-117.1875,-143.5546875,-44.43359375,-19.04296875
-62.98828125,-115.72265625,-32.2265625,11.23046875
16.6015625,12.6953125,-30.2734375,-35.15625
15.625,61.5234375,-39.55078125,-87.890625
-62.01171875,-18.5546875,-46.38671875,-72.75390625
-111.81640625,-111.328125,-45.8984375,-16.6015625
-73.2421875,-131.8359375,-41.015625,9.27734375
6.8359375,-19.04296875,-40.0390625,-31.73828125
24.90234375,65.4296875,-41.015625,-83.984375
-45.8984375,-6.34765625,-45.41015625,-81.54296875
