TP9,AF7,AF8,TP10
-34.66796875,-36.1328125,-39.55078125,-35.15625
-39.55078125,-44.43359375,-38.0859375,-35.15625
-41.9921875,-62.01171875,-39.0625,-28.80859375
-41.9921875,-34.1796875,-39.0625,-30.2734375
-41.9921875,-18.5546875,-35.15625,-35.15625
-41.015625,-22.94921875,-41.50390625,-42.48046875
-41.9921875,-66.40625,-51.26953125,-45.41015625
-50.78125,-72.265625,-55.17578125,-42.96875
-52.734375,-37.59765625,-55.17578125,-48.33984375
-40.0390625,-54.19921875,-53.7109375,-46.38671875
-36.62109375,-65.91796875,-49.8046875,-41.50390625
-44.43359375,-57.6171875,-47.36328125,-29.296875
-56.640625,-41.9921875,-45.8984375,-21.484375
-62.5,-41.015625,-50.78125,-28.3203125
-49.8046875,-39.0625,-55.17578125,-35.15625
-46.875,-43.45703125,-48.33984375,-45.8984375
-46.38671875,-60.05859375,-48.828125,-50.29296875
-53.7109375,-52.24609375,-53.22265625,-50.29296875
-53.22265625,-54.19921875,-53.7109375,-48.828125
-49.8046875,-62.98828125,-56.640625,-57.6171875
-51.26953125,-65.91796875,-55.6640625,-67.3828125
-48.828125,-73.2421875,-57.12890625,-66.89453125
-58.59375,-58.10546875,-58.59375,-61.03515625
-67.3828125,-42.48046875,-54.19921875,-56.640625
-51.7578125,-41.9921875,-51.26953125,-53.7109375
-41.50390625,-48.33984375,-48.828125,-68.84765625
-43.45703125,-61.5234375,-46.38671875,-71.2890625
-44.921875,-63.4765625,-49.31640625,-58.10546875
-50.29296875,-43.9453125,-55.6640625,-52.734375
-48.33984375,-16.6015625,-57.6171875,-49.8046875
-46.875,-43.9453125,-54.6875,-50.78125
-46.875,-86.9140625,-50.29296875,-46.38671875
-56.640625,-78.61328125,-52.24609375,-50.29296875
-54.19921875,-64.453125,-49.8046875,-45.8984375
-44.43359375,-48.828125,-49.8046875,-39.55078125
-46.875,-28.3203125,-54.6875,-53.7109375
-49.31640625,-47.36328125,-51.7578125,-52.24609375
-59.08203125,-70.3125,-54.19921875,-49.31640625
-62.01171875,-50.29296875,-57.6171875,-43.9453125
-53.22265625,-55.17578125,-56.15234375,-34.1796875
-47.36328125,-46.875,-56.640625,-42.48046875
-41.9921875,-24.4140625,-55.6640625,-45.8984375
-50.29296875,-76.171875,-60.05859375,-45.8984375
-63.4765625,-85.44921875,-59.5703125,-55.17578125
-68.359375,-41.50390625,-53.7109375,-54.6875
-59.5703125,-38.0859375,-51.7578125,-56.640625
-58.59375,-61.03515625,-55.6640625,-81.54296875
-61.5234375,-83.984375,-53.22265625,-80.56640625
-61.03515625,-61.03515625,-53.7109375,-65.91796875
-62.01171875,-41.9921875,-58.59375,-68.359375
-58.59375,-54.6875,-58.10546875,-74.21875
-67.3828125,-66.40625,-60.05859375,-79.1015625
-70.80078125,-73.73046875,-56.640625,-72.75390625
-75.1953125,-44.921875,-53.7109375,-61.5234375
-75.1953125,-38.0859375,-54.19921875,-59.08203125
-57.12890625,-70.3125,-53.22265625,-60.546875
-51.7578125,-75.1953125,-59.08203125,-66.40625
-58.59375,-80.078125,-59.08203125,-62.98828125
-66.89453125,-73.2421875,-55.17578125,-55.17578125
-72.75390625,-58.10546875,-55.17578125,-57.12890625
-65.4296875,-46.38671875,-61.5234375,-65.91796875
-58.59375,-48.33984375,-63.4765625,-68.359375
-62.01171875,-65.4296875,-63.4765625,-62.98828125
-63.4765625,-74.70703125,-60.05859375,-52.24609375
-66.89453125,-65.4296875,-53.7109375,-46.875
-63.4765625,-18.06640625,-50.29296875,-43.9453125
-54.19921875,-47.36328125,-47.8515625,-49.31640625
-59.08203125,-79.58984375,-49.8046875,-62.98828125
-61.5234375,-66.40625,-56.640625,-66.89453125
-56.640625,-72.265625,-57.6171875,-62.01171875
-61.03515625,-47.36328125,-53.7109375,-65.91796875
-51.7578125,-47.8515625,-51.26953125,-71.2890625
-42.96875,-64.94140625,-57.6171875,-73.2421875
-52.24609375,-64.453125,-62.5,-77.1484375
-52.24609375,-58.10546875,-62.01171875,-72.265625
-54.19921875,-48.33984375,-62.5,-63.4765625
-64.94140625,-50.78125,-63.4765625,-60.546875
-54.19921875,-42.48046875,-57.6171875,-58.59375
-49.31640625,-65.4296875,-47.36328125,-49.31640625
-62.5,-71.77734375,-46.38671875,-45.41015625
-60.05859375,-38.57421875,-47.36328125,-47.36328125
-56.640625,-47.36328125,-42.96875,-55.17578125
-51.7578125,-60.05859375,-43.45703125,-61.5234375
-57.12890625,-61.5234375,-51.7578125,-58.10546875
-68.359375,-67.3828125,-52.24609375,-46.875
-62.01171875,-41.9921875,-47.8515625,-38.57421875
-52.24609375,-26.3671875,-45.41015625,-43.9453125
-42.96875,-62.01171875,-44.43359375,-49.31640625
-43.45703125,-51.7578125,-48.33984375,-41.015625
-53.22265625,-15.625,-45.41015625,-27.83203125
-60.05859375,-41.015625,-39.55078125,-21.97265625
-59.5703125,-53.22265625,-43.45703125,-46.38671875
-47.8515625,-56.15234375,-45.8984375,-70.3125
-52.24609375,-61.03515625,-43.45703125,-62.01171875
-61.5234375,-48.33984375,-42.48046875,-43.9453125
-50.78125,-35.64453125,-43.9453125,-48.33984375
-52.734375,-38.57421875,-50.78125,-59.5703125
-51.7578125,-45.8984375,-48.33984375,-51.7578125
-42.48046875,-60.546875,-46.38671875,-55.17578125
-50.78125,-76.171875,-46.38671875,-63.96484375
-61.03515625,-44.43359375,-44.43359375,-56.15234375
-58.59375,-17.578125,-43.45703125,-52.734375
-52.24609375,-64.453125,-44.43359375,-61.03515625
-50.78125,-84.47265625,-48.33984375,-59.5703125
-51.26953125,-61.03515625,-47.8515625,-48.828125
-53.22265625,-48.828125,-47.36328125,-49.8046875
-53.7109375,-44.43359375,-49.31640625,-53.22265625
-45.41015625,-46.38671875,-47.36328125,-49.8046875
-38.57421875,-55.6640625,-45.41015625,-49.8046875
-53.22265625,-63.96484375,-45.41015625,-45.41015625
-62.01171875,-44.43359375,-44.43359375,-44.43359375
-54.6875,-36.1328125,-41.015625,-47.8515625
-52.24609375,-55.17578125,-43.45703125,-49.31640625
-48.828125,-40.52734375,-47.36328125,-40.52734375
-48.828125,-45.8984375,-47.8515625,-25.87890625
-55.17578125,-69.82421875,-48.828125,-34.66796875
-50.78125,-54.6875,-45.41015625,-42.48046875
-43.45703125,-40.0390625,-38.0859375,-32.2265625
-38.57421875,-48.828125,-41.015625,-56.15234375
-41.015625,-62.5,-48.33984375,-74.70703125
-49.8046875,-52.734375,-48.828125,-58.10546875
-50.78125,-45.41015625,-48.828125,-52.24609375
-46.875,-55.17578125,-50.78125,-52.24609375
-45.41015625,-61.03515625,-54.6875,-61.03515625
-48.828125,-52.24609375,-51.26953125,-73.2421875
-38.57421875,-19.53125,-46.875,-69.3359375
-38.0859375,-32.71484375,-49.31640625,-63.4765625
-53.22265625,-44.43359375,-46.875,-55.17578125
-49.31640625,-35.64453125,-48.828125,-53.22265625
-45.41015625,-68.84765625,-44.921875,-52.24609375
-50.78125,-65.4296875,-38.57421875,-39.0625
-55.17578125,-39.0625,-40.0390625,-41.9921875
-45.41015625,-33.69140625,-35.64453125,-48.828125
-51.26953125,-51.7578125,-35.64453125,-49.8046875
-55.17578125,-61.03515625,-43.9453125,-38.0859375
-53.22265625,-62.01171875,-44.921875,-28.3203125
-61.03515625,-36.1328125,-40.0390625,-29.78515625
-54.19921875,-15.625,-40.52734375,-30.2734375
-52.734375,-62.5,-44.921875,-49.8046875
-52.24609375,-79.58984375,-46.875,-55.6640625
-52.24609375,-48.828125,-51.7578125,-53.22265625
-58.59375,-44.43359375,-55.6640625,-63.96484375
-57.12890625,-27.83203125,-55.17578125,-62.98828125
-43.9453125,-41.015625,-51.26953125,-69.3359375
-42.96875,-74.21875,-53.7109375,-82.03125
-51.26953125,-56.15234375,-57.12890625,-67.3828125
-57.6171875,-39.0625,-53.7109375,-44.43359375
-45.8984375,-33.69140625,-49.8046875,-36.62109375
-30.2734375,-32.2265625,-42.48046875,-36.62109375
-31.25,-25.87890625,-40.52734375,-44.921875
-41.015625,-70.3125,-39.55078125,-43.9453125
-44.43359375,-72.75390625,-40.0390625,-39.0625
-45.8984375,-24.90234375,-41.9921875,-41.50390625
-52.734375,-38.0859375,-45.41015625,-49.8046875
-48.33984375,-68.84765625,-48.828125,-58.59375
-47.8515625,-69.82421875,-49.31640625,-59.08203125
-57.6171875,-63.4765625,-49.8046875,-55.17578125
-56.640625,-29.296875,-51.26953125,-52.734375
-51.26953125,-35.15625,-49.8046875,-60.05859375
-53.22265625,-74.70703125,-50.78125,-64.453125
-60.546875,-56.640625,-51.26953125,-51.26953125
-59.5703125,-36.62109375,-47.8515625,-37.59765625
-50.29296875,-54.6875,-46.875,-33.69140625
-42.48046875,-63.4765625,-47.36328125,-37.59765625
-42.48046875,-54.6875,-46.38671875,-43.9453125
-42.48046875,-63.4765625,-43.9453125,-41.50390625
-49.31640625,-58.10546875,-45.41015625,-38.57421875
-59.5703125,-50.29296875,-45.41015625,-41.50390625
-51.7578125,-43.9453125,-43.9453125,-44.43359375
-47.8515625,-62.5,-45.41015625,-46.38671875
-61.5234375,-73.2421875,-46.38671875,-40.0390625
-62.5,-57.6171875,-52.24609375,-33.69140625
-53.7109375,-42.48046875,-51.26953125,-43.45703125
-38.0859375,-15.625,-49.31640625,-60.546875
-39.55078125,-44.921875,-51.26953125,-63.4765625
-60.546875,-95.703125,-55.6640625,-51.26953125
-58.59375,-67.3828125,-55.17578125,-46.875
-55.17578125,-46.875,-55.17578125,-59.08203125
-58.59375,-40.52734375,-55.6640625,-69.82421875
-51.7578125,-42.96875,-47.8515625,-69.82421875
-41.50390625,-65.4296875,-49.31640625,-60.546875
-50.29296875,-61.5234375,-53.22265625,-60.546875
-68.359375,-51.7578125,-51.7578125,-56.640625
-79.58984375,-57.6171875,-53.22265625,-54.6875
-83.984375,-47.8515625,-54.19921875,-61.5234375
-82.51953125,-49.8046875,-51.7578125,-66.89453125
-90.8203125,-76.171875,-57.12890625,-68.84765625
-87.40234375,-69.82421875,-58.10546875,-63.4765625
-77.1484375,-48.828125,-55.6640625,-62.01171875
-72.265625,-57.12890625,-51.7578125,-56.15234375
-66.40625,-73.73046875,-50.78125,-55.17578125
-68.84765625,-60.05859375,-55.17578125,-54.19921875
-68.359375,-47.8515625,-54.6875,-47.36328125
-58.59375,-45.41015625,-57.12890625,-46.875
-44.921875,-39.0625,-59.08203125,-49.31640625
-40.52734375,-57.6171875,-53.7109375,-53.22265625
-51.26953125,-70.3125,-48.33984375,-52.24609375
-58.10546875,-34.1796875,-47.8515625,-46.875
-56.15234375,-32.71484375,-49.31640625,-50.29296875
-51.7578125,-64.453125,-48.828125,-53.22265625
-46.38671875,-65.91796875,-43.45703125,-49.8046875
-50.78125,-60.546875,-47.8515625,-49.8046875
-64.453125,-52.24609375,-46.38671875,-43.45703125
-66.89453125,-29.78515625,-39.0625,-36.62109375
-58.59375,-40.52734375,-37.109375,-44.43359375
-60.05859375,-63.4765625,-38.57421875,-50.29296875
-65.4296875,-64.453125,-49.8046875,-62.5
-64.94140625,-45.41015625,-49.8046875,-60.05859375
-54.19921875,-36.62109375,-42.96875,-49.31640625
-54.19921875,-30.76171875,-45.8984375,-57.6171875
-51.26953125,-57.6171875,-52.734375,-64.94140625
-51.26953125,-91.30859375,-53.7109375,-61.03515625
-62.01171875,-61.5234375,-49.31640625,-58.10546875
-64.453125,-50.78125,-47.8515625,-63.96484375
-66.40625,-52.734375,-48.33984375,-67.87109375
-76.171875,-59.08203125,-50.29296875,-63.4765625
-83.0078125,-74.21875,-52.24609375,-61.03515625
-81.54296875,-63.4765625,-52.24609375,-63.4765625
-76.171875,-40.0390625,-52.734375,-58.59375
-69.82421875,-58.10546875,-54.6875,-62.98828125
-72.75390625,-54.19921875,-58.59375,-67.87109375
-68.84765625,-39.55078125,-54.6875,-58.10546875
-67.87109375,-73.73046875,-49.31640625,-45.8984375
-69.82421875,-72.265625,-53.7109375,-49.31640625
-63.4765625,-36.1328125,-57.6171875,-59.5703125
-60.05859375,-50.78125,-56.15234375,-71.2890625
-62.01171875,-78.61328125,-56.15234375,-91.796875
-68.359375,-76.171875,-61.5234375,-85.9375
-61.5234375,-46.875,-59.5703125,-64.453125
-46.875,-39.0625,-51.26953125,-53.22265625
-41.015625,-46.38671875,-50.78125,-51.7578125
-42.48046875,-74.70703125,-58.10546875,-58.10546875
-53.22265625,-85.9375,-61.5234375,-58.59375
-61.03515625,-32.71484375,-56.640625,-53.22265625
-50.78125,-31.73828125,-54.19921875,-54.6875
-45.8984375,-78.61328125,-49.8046875,-48.828125
-51.26953125,-84.9609375,-50.78125,-50.29296875
-61.03515625,-73.2421875,-52.734375,-57.6171875
-71.2890625,-49.31640625,-55.17578125,-54.19921875
-64.94140625,-42.96875,-63.4765625,-55.6640625
-55.17578125,-58.59375,-65.91796875,-56.640625
-48.33984375,-64.453125,-64.453125,-57.12890625
-56.15234375,-68.359375,-69.82421875,-55.17578125
-61.5234375,-59.08203125,-67.87109375,-54.6875
-51.7578125,-31.25,-49.31640625,-52.24609375
-52.734375,-14.16015625,-45.41015625,-56.640625
-65.4296875,-60.546875,-51.7578125,-62.98828125
-76.171875,-71.2890625,-53.22265625,-60.05859375
-64.94140625,-41.50390625,-49.31640625,-52.24609375
-58.10546875,-52.24609375,-45.8984375,-51.7578125
-62.5,-46.875,-46.875,-61.03515625
-59.5703125,-58.59375,-46.875,-62.98828125
-62.5,-67.3828125,-44.921875,-59.08203125
-62.01171875,-53.7109375,-41.015625,-55.17578125
-63.96484375,-42.48046875,-42.48046875,-51.26953125
-55.6640625,-41.015625,-42.48046875,-50.29296875
-49.31640625,-48.33984375,-39.0625,-53.22265625
-53.7109375,-48.33984375,-38.57421875,-47.8515625
-57.6171875,-75.68359375,-41.015625,-39.0625
-57.6171875,-65.91796875,-40.52734375,-37.109375
-43.9453125,-35.15625,-38.0859375,-39.55078125
-33.69140625,-47.8515625,-35.64453125,-41.015625
-35.64453125,-54.6875,-32.2265625,-39.0625
-44.921875,-52.734375,-31.25,-35.15625
-51.7578125,-39.0625,-36.1328125,-34.1796875
-45.41015625,-31.73828125,-41.015625,-38.57421875
-41.9921875,-49.8046875,-38.57421875,-42.48046875
-45.8984375,-71.2890625,-38.57421875,-50.29296875
-44.921875,-56.15234375,-39.55078125,-43.45703125
-43.45703125,-9.27734375,-42.96875,-34.66796875
-40.0390625,-33.69140625,-39.0625,-34.1796875
-42.48046875,-66.89453125,-36.1328125,-41.015625
-51.26953125,-61.03515625,-42.48046875,-49.8046875
-63.4765625,-60.546875,-37.109375,-47.8515625
-68.359375,-43.9453125,-33.69140625,-42.48046875
-57.12890625,-37.109375,-36.62109375,-48.33984375
-53.22265625,-48.33984375,-38.0859375,-55.17578125
-62.01171875,-54.19921875,-44.921875,-60.546875
-69.3359375,-50.78125,-48.33984375,-61.03515625
-73.2421875,-63.4765625,-47.8515625,-61.5234375
-66.40625,-34.1796875,-41.9921875,-62.01171875
-58.10546875,-22.4609375,-37.59765625,-54.19921875
-55.17578125,-74.70703125,-39.0625,-55.6640625
-58.10546875,-77.63671875,-42.96875,-59.08203125
-64.453125,-44.921875,-45.41015625,-57.12890625
-55.6640625,-24.90234375,-43.45703125,-50.78125
-50.29296875,-45.8984375,-41.9921875,-50.78125
-55.17578125,-62.5,-45.41015625,-54.6875
-59.5703125,-52.734375,-44.921875,-45.8984375
-50.78125,-43.9453125,-41.50390625,-38.0859375
-41.015625,-25.390625,-48.33984375,-39.55078125
-45.41015625,-45.41015625,-53.7109375,-48.828125
-50.78125,-50.29296875,-48.828125,-53.22265625
-46.875,-23.92578125,-46.38671875,-52.24609375
-41.9921875,-30.2734375,-47.8515625,-53.22265625
-39.0625,-52.24609375,-46.875,-53.7109375
-26.85546875,-51.26953125,-41.9921875,-46.38671875
-22.4609375,-48.33984375,-37.59765625,-37.59765625
-42.48046875,-57.12890625,-40.52734375,-41.015625
-55.17578125,-48.828125,-44.43359375,-43.45703125
-45.41015625,-20.99609375,-45.8984375,-33.69140625
-34.66796875,-20.01953125,-49.31640625,-28.80859375
-36.1328125,-44.43359375,-44.43359375,-36.1328125
-39.0625,-57.6171875,-39.55078125,-38.0859375
-41.9921875,-38.57421875,-40.52734375,-41.50390625
-41.9921875,-10.7421875,-43.9453125,-33.69140625
-20.01953125,-39.55078125,-47.8515625,-18.06640625
-30.76171875,-43.45703125,-42.96875,-39.0625
-65.4296875,-47.8515625,-34.1796875,-60.546875
-84.9609375,-69.82421875,-37.59765625,-62.5
-87.40234375,-38.57421875,-41.50390625,-68.84765625
-78.125,-13.671875,-34.66796875,-69.3359375
-81.0546875,-30.2734375,-35.15625,-83.49609375
-84.47265625,-57.6171875,-39.55078125,-91.796875
-90.8203125,-50.78125,-41.015625,-84.47265625
-92.7734375,-25.390625,-45.41015625,-84.47265625
-83.0078125,-14.6484375,-44.43359375,-84.9609375
-79.58984375,-22.94921875,-42.96875,-83.0078125
-76.171875,-62.01171875,-45.41015625,-81.54296875
-78.61328125,-80.078125,-51.26953125,-80.56640625
-78.61328125,-47.8515625,-53.22265625,-74.21875
-69.82421875,-23.92578125,-47.8515625,-66.89453125
-65.4296875,-16.6015625,-45.8984375,-70.3125
-56.15234375,-31.25,-45.41015625,-72.75390625
-57.12890625,-61.03515625,-46.875,-73.73046875
-66.40625,-49.31640625,-51.7578125,-65.91796875
-52.24609375,-25.390625,-48.828125,-55.17578125
-45.8984375,-43.45703125,-44.921875,-56.15234375
-52.734375,-43.9453125,-49.31640625,-60.546875
-52.24609375,-23.92578125,-49.31640625,-57.12890625
-51.26953125,-39.55078125,-47.8515625,-40.0390625
-44.921875,-47.36328125,-46.38671875,-33.203125
-41.015625,-36.62109375,-48.33984375,-46.875
-39.0625,-41.015625,-45.8984375,-48.33984375
-47.8515625,-59.5703125,-45.41015625,-37.59765625
-60.05859375,-40.0390625,-48.828125,-34.66796875
-48.828125,-26.85546875,-45.41015625,-30.2734375
-37.59765625,-32.2265625,-45.8984375,-30.2734375
-36.62109375,-41.9921875,-50.29296875,-38.0859375
-43.9453125,-73.73046875,-47.36328125,-41.9921875
-54.6875,-57.6171875,-41.015625,-41.50390625
-49.8046875,-15.625,-39.0625,-41.015625
-41.015625,-34.66796875,-36.62109375,-37.59765625
-44.921875,-75.68359375,-32.71484375,-41.015625
-48.33984375,-70.80078125,-34.1796875,-46.38671875
-55.6640625,-63.96484375,-41.9921875,-41.015625
-60.546875,-43.45703125,-45.41015625,-38.57421875
-43.45703125,-36.1328125,-41.9921875,-37.109375
-40.52734375,-56.640625,-42.48046875,-42.48046875
-57.6171875,-72.265625,-44.43359375,-46.38671875
-62.5,-56.640625,-46.875,-38.0859375
-60.05859375,-35.15625,-48.33984375,-35.15625
-53.22265625,-45.41015625,-47.8515625,-42.96875
-55.17578125,-39.55078125,-44.43359375,-49.8046875
-58.59375,-57.6171875,-41.50390625,-45.8984375
-63.4765625,-87.40234375,-46.38671875,-42.96875
-60.546875,-48.828125,-51.26953125,-43.45703125
-45.41015625,-30.2734375,-51.7578125,-40.52734375
-43.45703125,-57.6171875,-50.78125,-41.9921875
-44.43359375,-68.359375,-51.7578125,-42.96875
-47.36328125,-52.24609375,-47.8515625,-41.015625
-49.31640625,-44.43359375,-42.96875,-35.15625
-34.1796875,-40.52734375,-41.50390625,-24.4140625
-34.1796875,-39.0625,-43.45703125,-35.64453125
-51.26953125,-56.640625,-45.8984375,-61.03515625
-57.12890625,-41.015625,-44.43359375,-59.5703125
-68.359375,-40.52734375,-46.875,-53.7109375
-70.80078125,-55.6640625,-51.26953125,-52.734375
-57.6171875,-30.76171875,-43.45703125,-58.59375
-57.6171875,-54.6875,-42.48046875,-62.5
-55.6640625,-82.03125,-48.828125,-49.8046875
-52.734375,-54.6875,-46.875,-43.45703125
-52.734375,-34.1796875,-43.9453125,-43.9453125
-39.55078125,-40.0390625,-41.015625,-41.9921875
-34.1796875,-53.7109375,-41.9921875,-49.8046875
-42.48046875,-62.01171875,-45.8984375,-50.29296875
-56.15234375,-45.41015625,-49.8046875,-50.29296875
-61.03515625,-18.06640625,-51.26953125,-52.734375
-53.22265625,-49.31640625,-44.921875,-51.26953125
-51.26953125,-64.94140625,-41.9921875,-56.640625
-55.6640625,-54.19921875,-42.48046875,-51.26953125
-53.7109375,-51.26953125,-45.41015625,-38.0859375
-49.8046875,-31.25,-45.41015625,-34.66796875
-46.38671875,-32.2265625,-45.41015625,-42.96875
-41.9921875,-55.17578125,-47.8515625,-44.921875
-46.875,-62.01171875,-49.31640625,-39.0625
-53.7109375,-53.22265625,-48.33984375,-38.0859375
-46.38671875,-43.45703125,-45.41015625,-41.50390625
-41.9921875,-30.76171875,-41.015625,-41.9921875
-45.8984375,-15.625,-41.50390625,-44.43359375
-40.52734375,-58.10546875,-45.8984375,-48.828125
-48.828125,-68.84765625,-41.50390625,-44.921875
-55.6640625,-35.64453125,-35.64453125,-46.38671875
-43.9453125,-26.3671875,-38.0859375,-51.7578125
-44.921875,-36.62109375,-46.38671875,-60.05859375
-47.36328125,-56.640625,-50.29296875,-61.5234375
-45.41015625,-65.4296875,-50.29296875,-54.6875
-49.31640625,-33.203125,-49.31640625,-49.8046875
-44.43359375,-17.578125,-48.828125,-49.31640625
-41.015625,-45.8984375,-46.875,-44.921875
-49.31640625,-64.453125,-45.8984375,-40.0390625
-53.22265625,-41.9921875,-44.921875,-38.57421875
-52.734375,-53.7109375,-42.48046875,-38.57421875
-46.875,-50.29296875,-45.41015625,-44.43359375
-44.43359375,-45.8984375,-45.41015625,-54.19921875
-43.9453125,-59.5703125,-42.96875,-61.03515625
-47.36328125,-46.38671875,-45.8984375,-57.6171875
-50.29296875,-31.73828125,-46.875,-51.7578125
-39.55078125,-22.94921875,-45.8984375,-48.33984375
-31.25,-44.921875,-41.015625,-47.36328125
-36.1328125,-61.5234375,-41.9921875,-51.26953125
-45.41015625,-57.6171875,-48.828125,-53.22265625
-51.7578125,-56.640625,-51.26953125,-48.33984375
-47.8515625,-27.34375,-48.828125,-48.828125
-43.9453125,-31.25,-51.26953125,-57.6171875
-48.33984375,-75.68359375,-52.734375,-53.22265625
-62.5,-69.82421875,-55.17578125,-43.9453125
-70.3125,-42.96875,-57.12890625,-38.57421875
-63.96484375,-31.25,-55.6640625,-42.48046875
-54.19921875,-43.9453125,-54.19921875,-48.33984375
-50.78125,-58.59375,-51.26953125,-47.8515625
-55.6640625,-67.3828125,-47.8515625,-48.828125
-55.17578125,-50.78125,-48.33984375,-49.31640625
-57.6171875,-22.4609375,-52.734375,-49.31640625
-51.7578125,-42.96875,-51.7578125,-56.15234375
-47.8515625,-47.8515625,-51.7578125,-62.98828125
-59.08203125,-81.0546875,-53.22265625,-62.01171875
-63.96484375,-72.265625,-55.6640625,-58.10546875
-57.6171875,-15.625,-55.6640625,-59.08203125
-49.31640625,-43.9453125,-56.15234375,-60.546875
-41.9921875,-60.546875,-53.22265625,-59.08203125
-34.66796875,-48.33984375,-51.7578125,-56.15234375
-42.96875,-47.8515625,-57.6171875,-49.8046875
-52.24609375,-30.2734375,-55.6640625,-51.26953125
-42.96875,-6.8359375,-49.31640625,-50.78125
-36.1328125,-36.62109375,-49.8046875,-54.6875
-45.41015625,-61.03515625,-56.640625,-62.5
-50.29296875,-20.99609375,-56.640625,-57.6171875
-49.8046875,-24.90234375,-52.24609375,-50.29296875
-50.29296875,-43.45703125,-53.7109375,-55.17578125
-46.875,-44.43359375,-53.22265625,-54.19921875
-50.78125,-57.6171875,-47.8515625,-50.29296875
-61.5234375,-41.50390625,-49.31640625,-53.22265625
-62.01171875,-21.484375,-49.8046875,-45.41015625
-55.17578125,-41.015625,-46.38671875,-44.921875
-57.6171875,-55.17578125,-45.41015625,-47.8515625
-58.10546875,-49.31640625,-41.9921875,-44.921875
-62.5,-61.5234375,-44.921875,-50.29296875
-66.89453125,-32.2265625,-48.33984375,-43.45703125
-54.19921875,-7.32421875,-42.96875,-40.0390625
-48.828125,-56.15234375,-40.0390625,-41.9921875
-52.24609375,-73.2421875,-46.875,-45.41015625
-56.640625,-59.08203125,-51.7578125,-49.8046875
-59.5703125,-37.109375,-53.22265625,-45.41015625
-54.6875,-23.92578125,-55.6640625,-46.875
-53.22265625,-28.3203125,-52.24609375,-49.31640625
-53.22265625,-58.59375,-54.19921875,-46.38671875
-53.22265625,-59.08203125,-53.22265625,-45.41015625
-57.6171875,-23.4375,-49.8046875,-48.828125
-59.08203125,-34.66796875,-48.828125,-49.8046875
-55.6640625,-35.15625,-50.29296875,-52.24609375
-46.875,-27.83203125,-53.7109375,-53.22265625
-44.921875,-66.89453125,-52.24609375,-53.7109375
-53.7109375,-65.91796875,-53.7109375,-57.12890625
-52.734375,-30.2734375,-57.12890625,-54.6875
-43.45703125,-24.90234375,-50.78125,-49.31640625
-39.0625,-47.36328125,-44.43359375,-47.36328125
-38.0859375,-62.98828125,-43.9453125,-45.8984375
-45.41015625,-55.17578125,-45.8984375,-47.36328125
-54.6875,-36.1328125,-47.36328125,-48.828125
-53.22265625,-24.90234375,-43.9453125,-51.26953125
-50.29296875,-53.7109375,-46.875,-57.12890625
-55.17578125,-47.8515625,-52.24609375,-60.546875
-60.05859375,-31.25,-54.6875,-56.640625
-63.4765625,-43.45703125,-60.05859375,-60.546875
-53.7109375,-55.17578125,-55.17578125,-60.05859375
-46.38671875,-65.4296875,-49.31640625,-59.5703125
-45.41015625,-65.91796875,-48.33984375,-59.08203125
-43.45703125,-63.96484375,-45.41015625,-54.19921875
-52.24609375,-32.2265625,-55.17578125,-58.10546875
-53.7109375,-36.62109375,-60.546875,-61.03515625
-54.19921875,-61.03515625,-56.15234375,-64.453125
-63.96484375,-58.10546875,-58.10546875,-68.84765625
-77.63671875,-68.359375,-62.98828125,-69.82421875
-76.66015625,-42.96875,-59.08203125,-66.89453125
-59.5703125,-12.6953125,-56.640625,-63.4765625
-60.05859375,-59.5703125,-58.10546875,-69.3359375
-59.5703125,-83.984375,-55.6640625,-69.82421875
-62.98828125,-59.08203125,-52.734375,-63.4765625
-68.84765625,-59.5703125,-55.6640625,-66.89453125
-60.546875,-45.41015625,-59.08203125,-70.80078125
-59.08203125,-44.921875,-62.01171875,-72.75390625
-61.5234375,-68.359375,-60.546875,-79.1015625
-73.2421875,-74.21875,-57.6171875,-74.21875
-77.63671875,-56.15234375,-58.10546875,-65.91796875
-66.40625,-41.9921875,-65.91796875,-70.3125
-58.59375,-42.48046875,-68.359375,-67.3828125
-56.640625,-47.36328125,-59.08203125,-68.359375
-56.640625,-62.5,-54.6875,-65.91796875
-61.03515625,-67.3828125,-55.17578125,-52.24609375
-52.734375,-51.26953125,-52.734375,-46.38671875
-42.48046875,-59.5703125,-50.29296875,-44.921875
-41.50390625,-69.3359375,-51.7578125,-45.8984375
-45.41015625,-74.21875,-53.22265625,-42.96875
-56.15234375,-77.1484375,-58.10546875,-48.828125
-56.15234375,-49.31640625,-62.98828125,-52.734375
-52.24609375,-67.87109375,-63.96484375,-54.19921875
-55.6640625,-85.44921875,-63.96484375,-63.4765625
-58.59375,-82.51953125,-60.05859375,-65.91796875
-58.59375,-53.22265625,-61.5234375,-59.5703125
-57.6171875,-43.9453125,-62.5,-55.17578125
-58.59375,-72.265625,-63.4765625,-60.546875
-58.59375,-71.2890625,-62.01171875,-62.5
-69.82421875,-78.61328125,-60.05859375,-66.40625
-85.9375,-83.0078125,-65.4296875,-66.89453125
-92.28515625,-57.12890625,-71.2890625,-65.4296875
-83.0078125,-57.6171875,-64.94140625,-70.80078125
-72.265625,-73.73046875,-62.98828125,-76.66015625
-68.84765625,-82.03125,-67.87109375,-77.1484375
-74.21875,-82.03125,-67.3828125,-75.1953125
-70.80078125,-58.10546875,-66.40625,-68.84765625
-51.26953125,-16.6015625,-63.4765625,-60.546875
-50.78125,-59.5703125,-62.5,-65.4296875
-56.15234375,-120.1171875,-66.40625,-69.3359375
-62.98828125,-74.70703125,-69.3359375,-62.01171875
-66.89453125,-37.59765625,-66.89453125,-57.12890625
-58.59375,-52.734375,-66.89453125,-62.98828125
-57.6171875,-68.84765625,-63.4765625,-64.94140625
-68.84765625,-77.63671875,-67.87109375,-70.3125
-73.2421875,-70.80078125,-69.3359375,-69.3359375
-71.2890625,-45.41015625,-63.4765625,-60.05859375
-63.96484375,-35.15625,-63.96484375,-57.6171875
-64.453125,-58.59375,-65.91796875,-61.5234375
-68.84765625,-60.05859375,-66.40625,-66.40625
-72.265625,-71.2890625,-67.3828125,-70.80078125
-79.1015625,-92.28515625,-66.40625,-67.3828125
-76.66015625,-69.82421875,-63.4765625,-69.82421875
-63.4765625,-67.87109375,-62.98828125,-74.21875
-52.24609375,-82.03125,-65.4296875,-68.359375
-59.5703125,-73.2421875,-66.89453125,-63.96484375
-60.546875,-52.734375,-62.5,-56.15234375
-49.31640625,-41.015625,-59.08203125,-53.22265625
-48.33984375,-48.828125,-61.03515625,-62.98828125
-47.8515625,-69.82421875,-65.91796875,-68.359375
-51.26953125,-66.40625,-66.89453125,-64.453125
-56.15234375,-31.25,-66.89453125,-59.08203125
-46.38671875,-46.875,-61.5234375,-53.22265625
-45.8984375,-58.59375,-57.12890625,-53.22265625
-50.78125,-53.7109375,-59.5703125,-56.640625
-57.12890625,-93.75,-58.10546875,-51.26953125
-61.5234375,-76.171875,-52.24609375,-43.45703125
-53.7109375,-23.92578125,-50.29296875,-46.38671875
-38.0859375,-36.62109375,-51.26953125,-50.29296875
-32.71484375,-64.453125,-51.7578125,-48.33984375
-40.52734375,-71.2890625,-50.78125,-42.48046875
-52.24609375,-52.24609375,-49.8046875,-36.62109375
-56.640625,-21.484375,-47.36328125,-35.64453125
-40.52734375,-18.06640625,-40.0390625,-36.62109375
-41.9921875,-61.03515625,-42.96875,-38.0859375
-51.26953125,-65.91796875,-46.38671875,-37.109375
-50.29296875,-39.55078125,-44.43359375,-38.0859375
-45.41015625,-20.5078125,-45.8984375,-38.0859375
-34.1796875,-18.5546875,-41.9921875,-36.62109375
-30.2734375,-19.53125,-38.0859375,-39.55078125
-37.59765625,-59.08203125,-42.96875,-45.41015625
-37.109375,-62.5,-42.48046875,-41.015625
-39.55078125,-26.3671875,-42.48046875,-38.0859375
-32.71484375,-18.06640625,-43.9453125,-30.76171875
-34.1796875,-21.484375,-41.9921875,-41.9921875
-49.8046875,-40.52734375,-41.50390625,-65.91796875
-58.10546875,-65.91796875,-43.9453125,-62.5
-54.6875,-50.78125,-35.64453125,-43.9453125
-43.45703125,-20.5078125,-30.2734375,-40.52734375
-41.9921875,-40.0390625,-35.15625,-50.29296875
-41.9921875,-60.05859375,-35.15625,-55.6640625
-52.734375,-49.31640625,-41.015625,-54.19921875
-58.59375,-37.59765625,-48.828125,-54.19921875
-49.8046875,-27.83203125,-49.31640625,-55.17578125
-44.43359375,-31.73828125,-49.8046875,-56.15234375
-35.64453125,-78.125,-51.26953125,-53.22265625
-38.57421875,-59.5703125,-44.921875,-44.43359375
-51.7578125,-17.578125,-43.45703125,-38.57421875
-56.640625,-43.9453125,-51.26953125,-44.921875
-52.734375,-64.453125,-51.26953125,-52.734375
-52.24609375,-61.5234375,-47.36328125,-48.828125
-55.6640625,-64.94140625,-48.33984375,-44.921875
-64.453125,-48.828125,-51.7578125,-53.7109375
-60.05859375,-27.83203125,-49.31640625,-57.12890625
-55.17578125,-34.1796875,-46.875,-56.15234375
-62.5,-55.6640625,-53.22265625,-62.98828125
-66.40625,-70.80078125,-57.12890625,-62.5
-66.89453125,-62.01171875,-53.22265625,-56.15234375
-61.03515625,-39.0625,-56.640625,-59.08203125
-56.15234375,-13.671875,-58.59375,-61.5234375
-55.17578125,-45.41015625,-52.24609375,-56.640625
-60.546875,-98.14453125,-53.22265625,-58.59375
-73.2421875,-80.56640625,-52.734375,-57.12890625
-74.21875,-37.109375,-52.24609375,-57.6171875
-62.98828125,-40.0390625,-52.24609375,-62.5
-59.08203125,-63.4765625,-53.7109375,-67.3828125
-65.4296875,-74.21875,-55.17578125,-67.3828125
-72.265625,-78.125,-52.734375,-59.08203125
-68.359375,-48.33984375,-47.8515625,-55.6640625
-66.40625,-49.31640625,-51.26953125,-59.08203125
-72.75390625,-67.87109375,-56.640625,-66.40625
-68.84765625,-40.0390625,-57.12890625,-69.82421875
-71.77734375,-59.08203125,-55.6640625,-66.40625
-72.75390625,-41.015625,-53.7109375,-63.4765625
-58.59375,-17.578125,-54.6875,-55.6640625
-50.29296875,-54.19921875,-53.7109375,-48.828125
-47.36328125,-74.70703125,-52.24609375,-48.828125
-46.875,-67.3828125,-54.19921875,-40.52734375
-41.015625,-37.59765625,-53.7109375,-34.1796875
-31.73828125,-30.2734375,-51.26953125,-38.0859375
-40.52734375,-45.8984375,-50.78125,-36.62109375
-47.36328125,-68.359375,-45.8984375,-34.1796875
-48.33984375,-49.8046875,-39.55078125,-33.203125
-45.8984375,-13.18359375,-41.015625,-30.2734375
-43.9453125,-43.9453125,-41.9921875,-33.69140625
-45.41015625,-70.80078125,-40.0390625,-34.66796875
-41.50390625,-59.5703125,-40.52734375,-37.59765625
-46.38671875,-61.5234375,-41.9921875,-41.50390625
-55.17578125,-42.96875,-40.52734375,-41.50390625
-47.8515625,-28.80859375,-44.921875,-48.33984375
-46.875,-55.6640625,-49.8046875,-59.08203125
-55.17578125,-49.31640625,-52.24609375,-62.01171875
-59.5703125,-54.19921875,-54.19921875,-55.6640625
-64.453125,-49.8046875,-54.19921875,-55.6640625
-56.15234375,-24.90234375,-53.22265625,-53.7109375
-42.48046875,-25.390625,-51.7578125,-50.78125
-41.50390625,-70.80078125,-47.8515625,-50.78125
-48.33984375,-73.2421875,-42.96875,-42.96875
-45.41015625,-33.203125,-47.8515625,-45.8984375
-41.50390625,-21.484375,-47.36328125,-48.33984375
-48.33984375,-35.64453125,-45.8984375,-49.31640625
-52.734375,-49.8046875,-50.29296875,-52.734375
-54.19921875,-65.4296875,-53.22265625,-48.828125
-54.6875,-34.66796875,-49.31640625,-38.0859375
-43.9453125,4.39453125,-45.8984375,-37.59765625
-39.0625,-29.78515625,-51.7578125,-44.43359375
-33.69140625,-53.22265625,-48.828125,-43.9453125
-35.64453125,-29.78515625,-45.8984375,-43.9453125
-46.38671875,-41.015625,-50.78125,-47.36328125
-46.38671875,-46.38671875,-49.31640625,-47.36328125
-40.0390625,-33.69140625,-48.828125,-46.875
-33.69140625,-46.875,-52.734375,-46.38671875
-38.57421875,-57.12890625,-50.29296875,-41.015625
-45.8984375,-54.6875,-50.78125,-46.875
-43.45703125,-34.1796875,-53.7109375,-54.19921875
-38.0859375,-39.55078125,-49.31640625,-47.8515625
-28.80859375,-67.3828125,-45.41015625,-36.1328125
-23.4375,-79.1015625,-48.828125,-34.66796875
-40.52734375,-58.59375,-50.78125,-40.0390625
-49.31640625,-9.27734375,-43.9453125,-41.50390625
-44.43359375,-16.11328125,-47.8515625,-45.41015625
-46.875,-61.5234375,-52.734375,-58.59375
-55.17578125,-70.80078125,-55.6640625,-65.4296875
-60.546875,-51.26953125,-61.5234375,-62.5
-62.01171875,-21.97265625,-62.01171875,-57.6171875
-53.7109375,-2.44140625,-63.96484375,-63.4765625
-50.78125,-12.6953125,-64.94140625,-76.66015625
-48.33984375,-34.1796875,-64.94140625,-75.68359375
-50.29296875,-39.0625,-71.77734375,-71.2890625
-53.7109375,-3.41796875,-76.171875,-70.3125
-37.109375,20.01953125,-67.3828125,-62.98828125
-27.34375,3.41796875,-61.5234375,-60.546875
-34.1796875,-48.33984375,-64.94140625,-67.87109375
-46.38671875,-58.59375,-64.453125,-66.40625
-43.9453125,-20.01953125,-64.453125,-54.6875
-33.69140625,-26.3671875,-60.546875,-46.875
-29.78515625,-32.2265625,-52.734375,-47.8515625
-30.2734375,-41.015625,-54.19921875,-57.12890625
-36.62109375,-43.9453125,-58.10546875,-64.94140625
-38.0859375,-20.5078125,-59.5703125,-60.05859375
-40.0390625,-13.18359375,-58.59375,-62.01171875
-37.109375,-29.78515625,-54.19921875,-63.96484375
-40.0390625,-38.57421875,-55.6640625,-62.01171875
-49.31640625,-29.296875,-57.12890625,-62.98828125
-47.36328125,-27.83203125,-54.6875,-60.05859375
-33.69140625,-37.109375,-51.7578125,-52.734375
-21.97265625,-22.4609375,-50.29296875,-50.78125
-29.296875,-40.52734375,-51.7578125,-50.29296875
-45.41015625,-63.96484375,-55.6640625,-47.8515625
-45.41015625,-39.55078125,-55.6640625,-43.9453125
-45.41015625,-50.78125,-58.10546875,-42.48046875
-44.921875,-50.29296875,-55.17578125,-33.69140625
-41.015625,-44.43359375,-50.78125,-33.69140625
-44.43359375,-67.87109375,-50.29296875,-37.109375
-44.921875,-65.91796875,-48.33984375,-33.69140625
-33.203125,-13.671875,-48.33984375,-32.2265625
-21.97265625,-19.53125,-54.19921875,-34.66796875
-29.296875,-71.77734375,-56.640625,-45.41015625
-37.59765625,-70.3125,-51.26953125,-48.33984375
-39.0625,-54.19921875,-53.22265625,-43.45703125
-42.96875,-45.41015625,-56.15234375,-44.921875
-35.64453125,-38.0859375,-52.24609375,-48.828125
-33.69140625,-62.01171875,-48.828125,-49.8046875
-46.38671875,-72.75390625,-49.31640625,-49.31640625
-50.29296875,-50.78125,-45.8984375,-45.41015625
-45.41015625,-49.31640625,-44.921875,-36.1328125
-46.38671875,-36.1328125,-49.8046875,-35.15625
-44.921875,-32.71484375,-50.78125,-42.96875
-40.52734375,-84.9609375,-48.33984375,-46.38671875
-51.7578125,-83.49609375,-43.45703125,-42.48046875
-54.6875,-36.62109375,-48.828125,-46.875
-42.48046875,-29.296875,-52.734375,-49.31640625
-43.9453125,-40.52734375,-50.78125,-44.43359375
-48.828125,-58.59375,-54.19921875,-48.828125
-52.734375,-68.84765625,-58.10546875,-49.8046875
-54.19921875,-43.45703125,-54.6875,-47.8515625
-43.9453125,-26.85546875,-51.26953125,-52.24609375
-44.43359375,-44.921875,-55.6640625,-60.05859375
-47.36328125,-65.4296875,-57.12890625,-65.4296875
-41.50390625,-38.57421875,-54.19921875,-57.6171875
-42.48046875,-43.9453125,-57.6171875,-51.26953125
-39.0625,-67.3828125,-52.734375,-40.0390625
-36.62109375,-57.12890625,-49.31640625,-34.66796875
-38.0859375,-69.82421875,-53.7109375,-45.8984375
-47.8515625,-64.94140625,-52.24609375,-47.8515625
-50.78125,-54.6875,-52.734375,-43.9453125
-45.41015625,-43.45703125,-52.734375,-40.0390625
-42.96875,-43.9453125,-52.24609375,-33.203125
-37.109375,-67.3828125,-49.8046875,-33.69140625
-47.36328125,-65.91796875,-45.8984375,-33.203125
-48.828125,-61.03515625,-48.828125,-31.73828125
-44.921875,-21.484375,-51.26953125,-39.0625
-40.0390625,-42.96875,-46.38671875,-42.96875
-43.9453125,-82.03125,-44.921875,-48.33984375
-58.10546875,-62.98828125,-50.29296875,-52.734375
-63.96484375,-67.87109375,-53.7109375,-55.17578125
-56.15234375,-42.48046875,-51.26953125,-56.640625
-55.17578125,-33.69140625,-59.5703125,-59.5703125
-59.08203125,-56.15234375,-61.5234375,-67.3828125
-55.17578125,-67.87109375,-55.6640625,-62.01171875
-53.7109375,-70.3125,-56.15234375,-52.24609375
-51.7578125,-47.36328125,-54.19921875,-48.828125
-44.43359375,-32.2265625,-56.640625,-43.9453125
-39.0625,-37.59765625,-59.08203125,-48.828125
-49.8046875,-79.58984375,-55.17578125,-48.828125
-64.94140625,-96.6796875,-54.6875,-48.33984375
-62.5,-47.8515625,-59.08203125,-52.734375
-54.19921875,-41.015625,-56.640625,-51.26953125
-52.734375,-56.640625,-58.59375,-53.22265625
-61.03515625,-59.5703125,-62.5,-57.12890625
-65.91796875,-78.125,-62.01171875,-60.05859375
-58.10546875,-58.10546875,-56.15234375,-56.640625
-51.7578125,-41.9921875,-54.19921875,-59.08203125
-52.734375,-49.8046875,-54.6875,-67.3828125
-48.828125,-65.91796875,-58.10546875,-68.359375
-48.828125,-53.7109375,-55.6640625,-56.15234375
-52.24609375,-44.43359375,-49.8046875,-47.8515625
-48.828125,-53.7109375,-53.7109375,-56.15234375
-51.26953125,-51.7578125,-54.6875,-62.01171875
-47.36328125,-55.6640625,-57.6171875,-62.01171875
-53.22265625,-73.2421875,-61.5234375,-58.10546875
-62.5,-64.453125,-59.5703125,-54.6875
-53.7109375,-31.73828125,-56.15234375,-49.8046875
-50.78125,-33.69140625,-55.17578125,-50.29296875
-51.26953125,-51.26953125,-59.5703125,-55.6640625
-52.734375,-82.51953125,-60.546875,-56.15234375
-57.6171875,-70.3125,-58.59375,-53.22265625
-44.43359375,-18.5546875,-55.17578125,-46.875
-39.0625,-50.78125,-57.12890625,-50.78125
-41.9921875,-85.44921875,-62.98828125,-58.59375
-44.921875,-71.2890625,-60.546875,-55.17578125
-47.36328125,-51.7578125,-52.734375,-47.8515625
-49.8046875,-25.390625,-52.734375,-44.921875
-46.38671875,-28.3203125,-54.6875,-53.7109375
-41.015625,-49.31640625,-57.6171875,-59.5703125
-53.22265625,-62.98828125,-60.546875,-61.5234375
-60.546875,-49.31640625,-58.10546875,-63.96484375
-49.31640625,-28.80859375,-57.6171875,-60.05859375
-44.43359375,-24.4140625,-54.19921875,-61.5234375
-56.15234375,-35.15625,-53.7109375,-67.87109375
-66.89453125,-75.68359375,-57.6171875,-71.77734375
-67.3828125,-89.84375,-58.10546875,-68.84765625
-63.4765625,-41.9921875,-50.29296875,-54.6875
-53.22265625,-19.04296875,-42.48046875,-45.41015625
-49.31640625,-49.31640625,-46.875,-54.6875
-55.6640625,-60.05859375,-51.7578125,-59.5703125
-54.19921875,-54.19921875,-50.29296875,-56.640625
-57.12890625,-42.48046875,-51.7578125,-55.6640625
-53.22265625,-24.4140625,-55.17578125,-58.10546875
-49.31640625,-49.8046875,-53.7109375,-59.5703125
-41.50390625,-62.5,-55.6640625,-53.7109375
-41.50390625,-50.78125,-48.828125,-44.921875
-50.78125,-51.26953125,-48.33984375,-48.828125
-46.875,-35.15625,-54.6875,-54.19921875
-40.52734375,-42.48046875,-50.29296875,-56.640625
-39.55078125,-81.0546875,-48.33984375,-57.12890625
-39.0625,-69.3359375,-53.7109375,-56.640625
-41.50390625,-39.55078125,-56.15234375,-56.640625
-40.52734375,-28.3203125,-50.78125,-52.734375
-47.8515625,-41.50390625,-51.26953125,-52.24609375
-53.7109375,-65.91796875,-57.12890625,-58.10546875
-62.01171875,-72.75390625,-61.5234375,-66.89453125
-66.40625,-37.59765625,-61.03515625,-74.21875
-56.15234375,-5.37109375,-57.6171875,-71.77734375
-67.3828125,-53.7109375,-64.453125,-74.70703125
-66.89453125,-83.984375,-59.08203125,-72.75390625
-64.453125,-67.87109375,-54.19921875,-63.96484375
-66.89453125,-49.31640625,-60.546875,-62.98828125
-59.5703125,-21.97265625,-57.12890625,-59.5703125
-43.45703125,-31.25,-51.7578125,-51.7578125
-39.55078125,-82.03125,-49.8046875,-45.8984375
-63.96484375,-82.03125,-54.19921875,-46.38671875
-70.80078125,-56.640625,-58.10546875,-45.8984375
-65.4296875,-50.29296875,-61.03515625,-48.33984375
-59.5703125,-46.875,-60.546875,-56.640625
-49.8046875,-44.921875,-60.05859375,-63.4765625
-51.26953125,-73.2421875,-57.6171875,-63.96484375
-61.5234375,-76.171875,-54.6875,-52.734375
-62.5,-43.9453125,-56.15234375,-52.24609375
-58.59375,-38.57421875,-55.17578125,-60.546875
-67.3828125,-59.08203125,-56.640625,-65.4296875
-73.2421875,-76.66015625,-62.5,-69.82421875
-69.3359375,-66.40625,-64.94140625,-71.77734375
-60.546875,-38.57421875,-60.546875,-68.359375
-58.10546875,-40.52734375,-55.17578125,-69.82421875
-52.734375,-73.2421875,-55.17578125,-75.1953125
-52.24609375,-69.82421875,-52.734375,-70.3125
-58.59375,-40.0390625,-50.78125,-65.91796875
-53.7109375,-47.36328125,-52.24609375,-62.98828125
-39.0625,-58.59375,-51.7578125,-55.17578125
-39.0625,-59.08203125,-49.8046875,-54.6875
-56.640625,-69.82421875,-49.8046875,-56.15234375
-62.01171875,-61.03515625,-48.33984375,-48.828125
-66.89453125,-33.203125,-51.7578125,-49.31640625
-58.59375,-19.53125,-51.26953125,-57.12890625
-49.8046875,-53.7109375,-49.31640625,-55.17578125
-48.33984375,-74.70703125,-54.19921875,-52.24609375
-46.38671875,-68.359375,-55.17578125,-50.29296875
-52.24609375,-42.48046875,-60.546875,-49.31640625
-43.9453125,-2.9296875,-57.12890625,-47.8515625
-45.41015625,-34.66796875,-50.29296875,-47.8515625
-56.640625,-100.5859375,-54.19921875,-54.19921875
-63.4765625,-85.44921875,-60.05859375,-57.6171875
-65.4296875,-67.87109375,-62.01171875,-55.6640625
-47.8515625,-53.22265625,-62.5,-50.78125
-43.9453125,-42.96875,-57.6171875,-46.38671875
-57.6171875,-66.40625,-56.15234375,-59.08203125
-62.5,-72.75390625,-59.5703125,-60.05859375
-54.19921875,-45.41015625,-51.7578125,-43.9453125
-50.29296875,-30.76171875,-52.24609375,-48.33984375
-61.03515625,-37.59765625,-54.19921875,-60.546875
-43.9453125,-41.50390625,-46.875,-52.734375
-38.0859375,-82.51953125,-47.8515625,-41.9921875
-53.22265625,-66.89453125,-53.7109375,-44.921875
-46.38671875,-16.6015625,-56.640625,-50.29296875
-37.59765625,-50.78125,-55.6640625,-50.29296875
-42.96875,-70.80078125,-50.78125,-53.22265625
-50.78125,-69.3359375,-51.7578125,-53.22265625
-51.26953125,-52.24609375,-51.7578125,-44.43359375
-46.38671875,-17.578125,-46.875,-45.41015625
-48.828125,-23.92578125,-46.875,-49.8046875
-42.96875,-55.6640625,-50.29296875,-52.734375
-45.8984375,-57.6171875,-51.7578125,-50.29296875
-50.78125,-45.8984375,-47.36328125,-40.52734375
-49.31640625,-54.19921875,-46.38671875,-40.0390625
-39.55078125,-48.33984375,-50.29296875,-46.875
-31.73828125,-67.3828125,-50.78125,-46.38671875
-45.8984375,-77.1484375,-45.41015625,-43.45703125
-54.6875,-58.59375,-45.41015625,-43.45703125
-57.6171875,-41.015625,-49.31640625,-49.8046875
-48.33984375,-47.36328125,-43.45703125,-47.36328125
-43.9453125,-67.3828125,-43.9453125,-54.19921875
-57.6171875,-71.2890625,-49.8046875,-64.453125
-63.96484375,-68.84765625,-51.26953125,-58.59375
-60.546875,-28.80859375,-50.78125,-60.05859375
-40.52734375,1.953125,-47.36328125,-51.7578125
-35.15625,-49.31640625,-46.38671875,-50.29296875
-47.36328125,-82.03125,-47.8515625,-55.17578125
-50.29296875,-77.63671875,-51.7578125,-55.6640625
-47.36328125,-44.43359375,-53.7109375,-48.828125
-43.45703125,-33.69140625,-52.24609375,-41.9921875
-36.62109375,-48.33984375,-52.734375,-45.8984375
-33.69140625,-59.08203125,-53.22265625,-42.48046875
-50.29296875,-66.40625,-52.734375,-43.45703125
-59.08203125,-41.50390625,-49.31640625,-42.96875
-49.31640625,-44.43359375,-47.36328125,-39.0625
-42.48046875,-41.9921875,-43.45703125,-42.96875
-48.828125,-42.96875,-43.45703125,-48.828125
-59.08203125,-92.28515625,-48.33984375,-55.17578125
-71.2890625,-83.0078125,-46.875,-61.03515625
-64.94140625,-39.55078125,-42.96875,-59.5703125
-62.01171875,-43.45703125,-46.875,-58.10546875
-64.94140625,-68.84765625,-50.29296875,-61.03515625
-64.453125,-63.96484375,-50.78125,-62.5
-72.75390625,-40.0390625,-50.78125,-63.96484375
-74.21875,-41.015625,-52.734375,-61.03515625
-55.6640625,-46.875,-52.24609375,-57.6171875
-42.48046875,-58.59375,-49.31640625,-53.22265625
-55.17578125,-75.68359375,-51.26953125,-56.15234375
-64.94140625,-44.43359375,-52.734375,-52.24609375
-55.6640625,-17.578125,-48.828125,-39.0625
-45.41015625,-50.29296875,-48.33984375,-42.96875
-45.41015625,-78.61328125,-52.24609375,-48.33984375
-49.8046875,-81.54296875,-54.19921875,-43.9453125
-54.19921875,-63.96484375,-58.59375,-46.875
-44.921875,-38.57421875,-54.6875,-41.9921875
-38.57421875,-35.15625,-45.41015625,-34.66796875
-44.43359375,-51.26953125,-45.8984375,-48.33984375
-49.8046875,-62.5,-46.875,-54.19921875
-62.5,-61.5234375,-48.828125,-44.43359375
-51.7578125,-44.43359375,-48.33984375,-44.43359375
-36.62109375,-22.94921875,-47.36328125,-53.22265625
-36.1328125,-64.94140625,-45.41015625,-52.734375
-45.41015625,-87.40234375,-43.45703125,-52.734375
-61.5234375,-53.7109375,-47.36328125,-53.7109375
-62.98828125,-57.12890625,-53.22265625,-53.22265625
-53.22265625,-64.453125,-56.15234375,-64.94140625
-45.41015625,-71.77734375,-53.22265625,-69.82421875
-50.78125,-81.54296875,-54.19921875,-62.98828125
-60.546875,-74.21875,-62.5,-61.03515625
-61.03515625,-57.12890625,-64.94140625,-58.10546875
-58.59375,-59.08203125,-56.640625,-56.640625
-53.22265625,-67.3828125,-51.26953125,-57.6171875
-51.26953125,-64.94140625,-53.22265625,-54.6875
-59.5703125,-75.1953125,-53.22265625,-49.31640625
-59.08203125,-83.984375,-53.7109375,-58.10546875
-57.6171875,-44.43359375,-59.5703125,-69.3359375
-57.12890625,-49.8046875,-62.5,-68.359375
-56.15234375,-68.359375,-59.08203125,-62.5
-72.265625,-55.17578125,-57.6171875,-59.08203125
-88.37890625,-50.29296875,-61.03515625,-56.640625
-80.56640625,-40.52734375,-62.5,-61.03515625
-68.359375,-52.734375,-57.12890625,-59.08203125
-62.98828125,-72.75390625,-53.7109375,-52.24609375
-63.4765625,-69.82421875,-59.08203125,-58.10546875
-68.84765625,-35.15625,-61.5234375,-57.6171875
-59.08203125,-31.25,-55.17578125,-53.7109375
-52.734375,-48.33984375,-51.26953125,-60.05859375
-46.875,-58.59375,-54.6875,-64.453125
-46.38671875,-66.89453125,-53.22265625,-62.5
-73.2421875,-57.12890625,-57.12890625,-65.4296875
-77.1484375,-27.83203125,-61.5234375,-65.91796875
-57.12890625,-33.203125,-62.5,-65.91796875
-59.5703125,-75.1953125,-65.91796875,-69.3359375
-71.77734375,-67.87109375,-60.546875,-70.3125
-66.89453125,-52.734375,-61.03515625,-65.4296875
-58.10546875,-33.203125,-61.03515625,-61.03515625
-48.33984375,-19.04296875,-55.6640625,-58.10546875
-43.45703125,-79.1015625,-54.6875,-50.78125
-51.26953125,-100.5859375,-60.05859375,-49.31640625
-54.6875,-73.2421875,-65.91796875,-51.7578125
-44.921875,-53.7109375,-61.5234375,-47.36328125
-32.71484375,-45.8984375,-58.10546875,-47.36328125
-36.62109375,-60.05859375,-57.6171875,-58.10546875
-57.6171875,-73.2421875,-61.03515625,-63.4765625
-67.3828125,-70.3125,-63.4765625,-58.10546875
-67.87109375,-46.38671875,-59.08203125,-56.15234375
-60.05859375,-44.43359375,-57.6171875,-60.546875
-52.24609375,-51.26953125,-53.7109375,-60.546875
-55.6640625,-37.59765625,-53.22265625,-60.05859375
-53.7109375,-46.38671875,-52.734375,-54.19921875
-58.59375,-63.96484375,-54.6875,-57.12890625
-45.41015625,-47.8515625,-47.8515625,-49.31640625
-40.0390625,-54.19921875,-44.43359375,-43.45703125
-42.48046875,-70.3125,-47.36328125,-48.33984375
-53.7109375,-57.6171875,-51.26953125,-44.43359375
-62.5,-41.9921875,-56.15234375,-48.828125
-56.15234375,-36.62109375,-55.6640625,-52.24609375
-42.96875,-45.41015625,-52.24609375,-52.734375
-35.64453125,-75.68359375,-52.734375,-47.8515625
-56.640625,-64.453125,-57.6171875,-42.96875
-73.2421875,-14.16015625,-58.10546875,-42.48046875
-55.6640625,-31.73828125,-55.6640625,-47.8515625
-45.41015625,-68.359375,-51.7578125,-54.6875
-62.5,-72.265625,-52.734375,-56.15234375
-69.3359375,-85.44921875,-51.26953125,-59.08203125
-66.40625,-51.7578125,-51.26953125,-57.12890625
-56.640625,-29.78515625,-50.29296875,-53.7109375
-56.640625,-50.29296875,-49.31640625,-53.22265625
-61.03515625,-69.82421875,-51.26953125,-57.6171875
-54.6875,-69.3359375,-49.8046875,-63.96484375
-54.19921875,-47.36328125,-47.36328125,-55.17578125
-36.1328125,-24.4140625,-42.96875,-38.0859375
-33.203125,-16.6015625,-36.1328125,-40.0390625
-49.8046875,-67.87109375,-40.0390625,-47.8515625
-58.10546875,-100.09765625,-48.33984375,-49.8046875
-48.33984375,-67.87109375,-40.52734375,-41.015625
-39.55078125,-46.875,-40.52734375,-36.1328125
-45.41015625,-38.57421875,-47.8515625,-45.41015625
-33.203125,-43.9453125,-46.875,-53.22265625
-40.52734375,-87.40234375,-47.36328125,-52.734375
-64.453125,-73.73046875,-50.78125,-55.6640625
-62.5,-33.203125,-49.8046875,-59.5703125
-62.98828125,-41.015625,-45.8984375,-62.98828125
-67.3828125,-63.96484375,-49.8046875,-58.59375
-56.640625,-52.24609375,-52.24609375,-59.08203125
-58.59375,-72.265625,-57.6171875,-63.4765625
-58.59375,-62.5,-57.12890625,-57.12890625
-51.7578125,-35.64453125,-54.6875,-59.5703125
-57.12890625,-71.2890625,-60.546875,-64.453125
-71.77734375,-84.9609375,-59.5703125,-58.59375
-72.75390625,-65.91796875,-60.546875,-60.05859375
-65.4296875,-41.50390625,-61.5234375,-52.734375
-57.6171875,-36.1328125,-57.12890625,-55.17578125
-51.7578125,-54.6875,-53.7109375,-53.22265625
-57.6171875,-86.42578125,-54.19921875,-45.41015625
-59.5703125,-60.05859375,-54.6875,-52.734375
-55.6640625,-13.18359375,-56.640625,-58.59375
-39.55078125,-31.25,-53.22265625,-50.29296875
-30.76171875,-67.3828125,-52.24609375,-45.8984375
-51.7578125,-80.078125,-58.10546875,-52.734375
-68.359375,-69.82421875,-61.5234375,-59.08203125
-71.77734375,-41.50390625,-62.01171875,-65.91796875
-67.87109375,-35.64453125,-60.546875,-67.87109375
-56.640625,-55.6640625,-59.08203125,-60.546875
-54.19921875,-69.3359375,-62.5,-56.640625
-62.01171875,-71.77734375,-63.96484375,-64.453125
-56.640625,-55.6640625,-59.5703125,-63.96484375
-54.6875,-25.390625,-56.640625,-56.15234375
-62.98828125,-25.390625,-57.12890625,-62.01171875
-60.546875,-67.87109375,-53.7109375,-57.12890625
-45.41015625,-86.42578125,-45.41015625,-45.41015625
-41.50390625,-44.921875,-42.48046875,-48.828125
-41.50390625,-16.6015625,-43.9453125,-56.15234375
-32.71484375,-31.73828125,-47.8515625,-62.5
-39.55078125,-57.12890625,-50.78125,-63.96484375
-49.8046875,-69.3359375,-52.734375,-59.08203125
-46.875,-49.31640625,-56.640625,-61.5234375
-43.9453125,-23.4375,-52.24609375,-54.6875
-29.78515625,-39.55078125,-49.8046875,-48.828125
-23.4375,-51.7578125,-48.828125,-54.6875
-48.828125,-44.921875,-44.921875,-48.828125
-70.80078125,-78.125,-49.31640625,-46.38671875
-57.6171875,-50.29296875,-47.8515625,-42.96875
-35.64453125,-14.6484375,-40.52734375,-40.52734375
-36.1328125,-65.4296875,-41.015625,-46.875
-43.45703125,-80.078125,-42.48046875,-45.8984375
-57.6171875,-46.875,-49.8046875,-45.41015625
-64.453125,-24.90234375,-50.78125,-46.38671875
-47.36328125,-34.1796875,-44.921875,-48.828125
-49.8046875,-58.10546875,-46.38671875,-56.640625
-60.546875,-80.56640625,-42.48046875,-54.19921875
-61.03515625,-60.05859375,-38.57421875,-59.08203125
-53.7109375,-11.23046875,-35.15625,-49.8046875
-33.69140625,-36.1328125,-32.2265625,-36.62109375
-36.62109375,-72.265625,-37.59765625,-44.43359375
-53.22265625,-69.3359375,-41.9921875,-41.9921875
-50.29296875,-60.546875,-42.48046875,-37.59765625
-38.57421875,-35.15625,-43.9453125,-26.85546875
-40.0390625,-18.5546875,-41.50390625,-41.9921875
-41.9921875,-48.33984375,-41.50390625,-65.91796875
-35.64453125,-69.3359375,-44.921875,-54.19921875
-49.8046875,-60.546875,-42.48046875,-53.22265625
-68.84765625,-46.38671875,-45.41015625,-68.359375
-50.29296875,-3.41796875,-46.875,-56.15234375
-40.52734375,-12.6953125,-43.9453125,-52.24609375
-49.31640625,-69.3359375,-42.48046875,-55.17578125
-57.6171875,-78.61328125,-41.9921875,-52.734375
-60.05859375,-46.38671875,-41.9921875,-65.91796875
-49.31640625,-30.2734375,-42.96875,-59.5703125
-40.52734375,-44.921875,-44.43359375,-60.05859375
-43.9453125,-55.17578125,-46.38671875,-66.89453125
-48.828125,-74.70703125,-48.33984375,-59.08203125
-58.59375,-62.98828125,-50.78125,-60.546875
-55.17578125,-32.2265625,-50.29296875,-59.5703125
-41.9921875,-62.01171875,-46.875,-53.7109375
-51.26953125,-59.5703125,-46.38671875,-55.17578125
-54.6875,-55.17578125,-44.921875,-51.7578125
-45.8984375,-65.91796875,-44.43359375,-46.38671875
-49.8046875,-54.6875,-45.8984375,-50.29296875
-43.45703125,-53.22265625,-48.828125,-60.05859375
-44.43359375,-50.78125,-53.22265625,-56.640625
-65.4296875,-60.05859375,-55.6640625,-54.6875
-65.91796875,-60.05859375,-53.22265625,-59.08203125
-51.26953125,-38.0859375,-48.828125,-61.03515625
-42.48046875,-33.69140625,-51.26953125,-56.640625
-41.015625,-53.7109375,-52.734375,-52.734375
-42.48046875,-70.80078125,-49.31640625,-51.7578125
-47.8515625,-62.01171875,-51.26953125,-51.26953125
-49.31640625,-25.87890625,-49.8046875,-48.828125
-47.8515625,-29.78515625,-48.828125,-50.78125
-44.921875,-85.9375,-51.7578125,-59.5703125
-49.8046875,-89.84375,-46.875,-57.6171875
-68.84765625,-60.05859375,-50.78125,-52.24609375
-64.94140625,-36.62109375,-58.10546875,-50.29296875
-48.33984375,-34.66796875,-53.7109375,-46.875
-46.38671875,-60.05859375,-48.828125,-51.7578125
-54.19921875,-76.66015625,-52.734375,-57.12890625
-55.17578125,-71.2890625,-56.15234375,-53.22265625
-54.19921875,-46.875,-48.828125,-43.9453125
-51.26953125,-30.76171875,-50.78125,-45.8984375
-46.38671875,-24.90234375,-57.12890625,-53.7109375
-54.6875,-78.61328125,-53.7109375,-54.6875
-63.96484375,-85.44921875,-50.29296875,-51.26953125
-53.7109375,-38.57421875,-56.640625,-50.78125
-39.55078125,-41.015625,-61.03515625,-54.6875
-40.52734375,-55.6640625,-56.15234375,-56.640625
-44.43359375,-68.84765625,-51.7578125,-58.59375
-56.640625,-63.4765625,-49.8046875,-58.10546875
-73.73046875,-45.41015625,-53.7109375,-62.01171875
-73.2421875,-45.41015625,-59.08203125,-66.89453125
-59.08203125,-59.5703125,-59.5703125,-67.3828125
-54.19921875,-47.36328125,-58.59375,-57.6171875
-64.453125,-50.29296875,-65.91796875,-58.59375
-68.84765625,-63.4765625,-70.3125,-58.59375
-52.24609375,-53.22265625,-62.5,-48.33984375
-60.05859375,-54.6875,-60.05859375,-52.24609375
-62.01171875,-76.171875,-61.5234375,-58.10546875
-53.22265625,-65.4296875,-57.12890625,-49.8046875
-57.12890625,-37.109375,-52.734375,-48.828125
-53.7109375,-48.33984375,-51.7578125,-52.24609375
-52.24609375,-61.5234375,-53.7109375,-50.78125
-57.6171875,-76.171875,-52.24609375,-54.19921875
-56.15234375,-84.47265625,-54.19921875,-53.7109375
-47.8515625,-50.29296875,-56.640625,-50.78125
-50.78125,-11.71875,-58.10546875,-50.29296875
-39.55078125,-44.43359375,-59.08203125,-52.734375
-33.69140625,-74.70703125,-56.15234375,-55.6640625
-59.08203125,-67.87109375,-60.05859375,-61.03515625
-68.84765625,-55.17578125,-59.08203125,-68.84765625
-72.265625,-40.0390625,-56.15234375,-68.359375
-63.96484375,-38.57421875,-55.6640625,-63.96484375
-60.05859375,-61.03515625,-57.6171875,-69.3359375
-64.453125,-54.19921875,-59.08203125,-69.82421875
-56.15234375,-42.48046875,-58.10546875,-61.5234375
-57.12890625,-54.19921875,-60.05859375,-58.10546875
-53.22265625,-40.52734375,-58.10546875,-55.17578125
-49.31640625,-36.1328125,-50.78125,-53.22265625
-66.40625,-81.0546875,-44.43359375,-49.8046875
-69.3359375,-87.40234375,-47.8515625,-45.41015625
-52.734375,-47.8515625,-58.59375,-55.6640625
-56.15234375,-44.921875,-56.640625,-52.734375
-62.01171875,-67.3828125,-49.31640625,-52.734375
-64.94140625,-77.1484375,-55.6640625,-61.03515625
-71.77734375,-74.70703125,-59.5703125,-58.59375
-83.0078125,-51.26953125,-60.546875,-63.4765625
-73.2421875,-41.9921875,-59.5703125,-64.94140625
-53.7109375,-58.10546875,-54.6875,-66.40625
-55.17578125,-72.75390625,-61.03515625,-69.82421875
-58.59375,-61.03515625,-58.59375,-65.4296875
-62.01171875,-42.48046875,-56.15234375,-62.98828125
-65.91796875,-59.5703125,-60.546875,-70.80078125
-57.6171875,-70.3125,-56.15234375,-70.3125
-53.22265625,-76.66015625,-53.7109375,-62.5
-66.89453125,-75.1953125,-60.546875,-63.4765625
-66.40625,-49.31640625,-63.96484375,-60.546875
-53.22265625,-26.3671875,-60.546875,-50.29296875
-50.29296875,-46.38671875,-59.5703125,-53.7109375
-47.8515625,-68.84765625,-61.5234375,-52.734375
-55.17578125,-67.87109375,-62.01171875,-45.41015625
-57.6171875,-41.9921875,-56.640625,-44.921875
-45.41015625,-17.08984375,-49.8046875,-46.875
-40.52734375,-55.6640625,-50.29296875,-50.29296875
-53.7109375,-84.9609375,-57.6171875,-57.6171875
-55.17578125,-61.5234375,-59.5703125,-54.6875
-47.36328125,-47.36328125,-48.33984375,-40.52734375
-44.43359375,-43.45703125,-46.38671875,-41.015625
-44.921875,-54.19921875,-51.26953125,-51.7578125
-41.9921875,-70.80078125,-44.43359375,-51.7578125
-42.48046875,-78.125,-47.8515625,-49.31640625
-58.59375,-71.77734375,-52.734375,-55.6640625
-82.51953125,-56.640625,-52.734375,-65.91796875
-61.5234375,-33.69140625,-54.6875,-62.01171875
-41.50390625,-48.828125,-54.6875,-55.17578125
-63.4765625,-101.5625,-57.6171875,-61.5234375
-68.359375,-77.63671875,-58.10546875,-58.10546875
-57.12890625,-37.109375,-52.24609375,-47.36328125
-46.875,-37.59765625,-48.828125,-51.7578125
-55.6640625,-60.546875,-52.734375,-61.5234375
-67.87109375,-83.0078125,-58.10546875,-53.7109375
-61.5234375,-80.56640625,-55.6640625,-44.43359375
-54.19921875,-49.31640625,-53.22265625,-44.43359375
-41.9921875,-39.55078125,-49.8046875,-44.921875
-32.2265625,-61.03515625,-41.50390625,-34.66796875
-41.9921875,-65.4296875,-42.48046875,-34.1796875
-45.41015625,-42.48046875,-44.43359375,-39.55078125
-48.828125,-56.640625,-42.96875,-37.59765625
-49.8046875,-58.10546875,-47.8515625,-39.55078125
-37.59765625,-55.6640625,-46.38671875,-33.203125
-41.9921875,-66.40625,-47.8515625,-40.0390625
-44.921875,-51.26953125,-53.7109375,-50.78125
-44.43359375,-26.85546875,-52.734375,-44.43359375
-43.45703125,-28.80859375,-51.26953125,-39.55078125
-38.0859375,-45.41015625,-52.734375,-43.9453125
-44.921875,-66.89453125,-55.6640625,-53.7109375
-60.546875,-93.26171875,-52.734375,-44.921875
-66.40625,-55.6640625,-50.29296875,-43.9453125
-59.08203125,-9.765625,-49.31640625,-46.38671875
-60.05859375,-50.78125,-50.78125,-55.6640625
-54.19921875,-75.68359375,-49.31640625,-56.640625
-61.5234375,-66.40625,-45.41015625,-42.96875
-75.68359375,-50.78125,-44.921875,-41.50390625
-65.4296875,-34.66796875,-42.96875,-43.45703125
-49.8046875,-27.83203125,-44.43359375,-42.96875
-38.0859375,-46.38671875,-45.41015625,-41.50390625
-43.9453125,-72.265625,-42.96875,-42.96875
-55.6640625,-47.36328125,-41.9921875,-39.0625
-38.57421875,-20.5078125,-38.57421875,-32.2265625
-27.83203125,-42.96875,-40.0390625,-41.9921875
-31.73828125,-35.64453125,-41.50390625,-39.0625
-45.8984375,-45.8984375,-49.31640625,-38.0859375
-57.6171875,-82.03125,-53.22265625,-42.96875
-54.6875,-54.19921875,-46.38671875,-34.1796875
-54.6875,-38.0859375,-48.33984375,-47.36328125
-58.10546875,-57.12890625,-47.8515625,-58.10546875
-64.94140625,-81.0546875,-48.828125,-50.78125
-61.5234375,-71.2890625,-47.8515625,-41.9921875
-61.5234375,-47.36328125,-46.875,-53.7109375
-63.96484375,-49.8046875,-52.734375,-67.3828125
-62.98828125,-55.17578125,-51.7578125,-59.5703125
-65.4296875,-66.40625,-45.41015625,-46.38671875
-60.05859375,-32.71484375,-43.45703125,-41.9921875
-46.38671875,-30.76171875,-42.96875,-44.921875
-32.2265625,-47.8515625,-41.9921875,-43.9453125
-43.9453125,-48.33984375,-46.38671875,-48.33984375
-48.33984375,-70.80078125,-51.26953125,-47.36328125
-39.0625,-52.734375,-46.875,-47.36328125
-50.29296875,-36.62109375,-46.38671875,-49.31640625
-39.55078125,-41.9921875,-49.8046875,-52.24609375
-37.59765625,-53.22265625,-49.31640625,-62.01171875
-50.78125,-57.12890625,-52.734375,-63.4765625
-47.8515625,-68.84765625,-53.7109375,-58.59375
-51.26953125,-45.41015625,-53.7109375,-57.12890625
-48.828125,-7.32421875,-57.6171875,-61.03515625
-44.43359375,-49.31640625,-61.5234375,-57.12890625
-48.33984375,-87.40234375,-62.5,-59.08203125
-51.7578125,-68.359375,-61.5234375,-63.96484375
-55.6640625,-41.9921875,-55.17578125,-47.36328125
-48.828125,-30.2734375,-54.6875,-47.36328125
-46.38671875,-45.8984375,-56.640625,-59.5703125
-50.29296875,-101.07421875,-55.6640625,-55.17578125
-59.5703125,-95.21484375,-54.6875,-52.734375
-70.80078125,-50.29296875,-55.6640625,-48.828125
-67.3828125,-48.33984375,-59.5703125,-44.921875
-60.05859375,-66.89453125,-61.03515625,-62.5
-60.546875,-54.19921875,-58.59375,-69.3359375
-53.7109375,-72.75390625,-58.10546875,-59.08203125
-64.453125,-70.3125,-62.01171875,-65.4296875
-64.94140625,-42.48046875,-65.91796875,-68.84765625
-56.15234375,-51.26953125,-66.89453125,-69.82421875
-57.6171875,-63.96484375,-64.453125,-72.75390625
-64.94140625,-82.03125,-65.91796875,-74.70703125
-76.66015625,-69.3359375,-67.87109375,-79.1015625
-68.84765625,-28.80859375,-65.4296875,-68.359375
-61.5234375,-41.9921875,-67.3828125,-64.94140625
-64.94140625,-96.19140625,-64.94140625,-72.265625
-64.453125,-70.80078125,-62.98828125,-74.21875
-56.15234375,-32.2265625,-63.96484375,-68.359375
-60.05859375,-61.03515625,-62.01171875,-56.640625
-62.5,-64.94140625,-65.4296875,-62.5
-54.6875,-57.6171875,-60.546875,-66.40625
-62.98828125,-78.61328125,-58.10546875,-61.5234375
-67.3828125,-67.3828125,-54.6875,-57.12890625
-58.59375,-49.8046875,-57.12890625,-57.6171875
-53.22265625,-48.828125,-57.6171875,-57.12890625
-61.5234375,-58.59375,-55.17578125,-57.12890625
-74.70703125,-81.0546875,-60.546875,-70.80078125
-85.44921875,-69.82421875,-57.12890625,-72.75390625
-76.66015625,-46.875,-53.22265625,-69.82421875
-62.98828125,-29.296875,-57.6171875,-73.73046875
-58.59375,-63.96484375,-57.12890625,-71.2890625
-63.96484375,-114.74609375,-57.12890625,-67.87109375
-65.4296875,-86.42578125,-59.08203125,-68.359375
-62.5,-46.38671875,-55.17578125,-63.4765625
-59.5703125,-56.640625,-56.640625,-64.94140625
-73.2421875,-65.4296875,-58.59375,-72.265625
-72.75390625,-69.82421875,-59.08203125,-71.2890625
-64.453125,-74.70703125,-62.01171875,-63.4765625
-76.66015625,-54.19921875,-66.40625,-64.453125
-65.91796875,-49.8046875,-69.3359375,-68.359375
-59.08203125,-52.24609375,-64.453125,-71.77734375
-51.26953125,-58.59375,-57.6171875,-71.2890625
-59.5703125,-91.30859375,-52.734375,-62.5
-66.40625,-55.6640625,-53.7109375,-53.7109375
-52.24609375,-20.5078125,-56.15234375,-48.33984375
-50.29296875,-62.98828125,-59.5703125,-63.96484375
-46.875,-77.63671875,-68.84765625,-62.5
-50.78125,-80.56640625,-69.82421875,-45.8984375
-52.24609375,-63.96484375,-59.5703125,-43.45703125
-59.5703125,-43.45703125,-58.10546875,-50.29296875
-56.640625,-49.8046875,-62.98828125,-57.12890625
-54.6875,-68.84765625,-63.96484375,-59.08203125
-63.4765625,-73.73046875,-62.01171875,-64.453125
-53.22265625,-36.62109375,-63.4765625,-61.5234375
-29.296875,-28.3203125,-63.96484375,-37.59765625
-32.2265625,-67.87109375,-53.7109375,-35.15625
-64.453125,-82.03125,-51.7578125,-62.5
-76.66015625,-90.33203125,-55.6640625,-67.3828125
-71.77734375,-70.80078125,-48.828125,-50.78125
-73.2421875,-42.96875,-39.55078125,-45.41015625
-78.125,-77.1484375,-35.64453125,-54.6875
-69.82421875,-105.46875,-29.296875,-49.31640625
-74.70703125,-110.3515625,-24.90234375,-49.8046875
-88.8671875,-92.7734375,-27.34375,-53.22265625
-79.1015625,-67.87109375,-31.25,-51.26953125
-74.21875,-52.24609375,-30.2734375,-52.734375
-72.75390625,-93.26171875,-30.76171875,-59.08203125
-64.453125,-130.37109375,-30.76171875,-59.5703125
-76.171875,-92.28515625,-30.2734375,-56.15234375
-86.42578125,-57.12890625,-32.71484375,-53.7109375
-72.265625,-59.08203125,-34.1796875,-46.38671875
-76.171875,-77.1484375,-36.1328125,-52.24609375
-82.51953125,-93.75,-38.57421875,-59.08203125
-78.61328125,-82.51953125,-39.55078125,-46.875
-63.4765625,-53.7109375,-35.15625,-38.0859375
-59.5703125,-69.3359375,-29.78515625,-41.50390625
-70.80078125,-80.56640625,-29.78515625,-46.38671875
-58.59375,-62.5,-33.69140625,-48.33984375
-58.59375,-81.0546875,-35.15625,-39.0625
-56.15234375,-82.03125,-33.69140625,-33.203125
-38.57421875,-32.2265625,-29.78515625,-36.1328125
-43.45703125,-55.17578125,-36.1328125,-42.48046875
-36.62109375,-81.54296875,-32.2265625,-34.1796875
-34.1796875,-63.96484375,-25.390625,-26.3671875
-46.38671875,-55.17578125,-31.73828125,-31.73828125
-39.0625,-28.3203125,-31.73828125,-36.62109375
-41.015625,-42.96875,-29.78515625,-42.48046875
-54.6875,-86.9140625,-36.1328125,-48.33984375
-63.4765625,-83.0078125,-43.9453125,-49.31640625
-68.359375,-35.15625,-42.48046875,-44.921875
-48.33984375,-17.578125,-35.64453125,-33.69140625
-38.0859375,-68.84765625,-30.76171875,-30.2734375
-58.10546875,-93.75,-35.64453125,-45.41015625
-56.15234375,-69.82421875,-36.62109375,-41.015625
-37.109375,-43.45703125,-36.1328125,-32.71484375
-39.0625,-31.25,-40.0390625,-32.71484375
-40.0390625,-43.45703125,-41.9921875,-31.73828125
-38.0859375,-72.265625,-43.9453125,-31.25
-42.48046875,-70.80078125,-44.921875,-24.90234375
-49.31640625,-54.19921875,-44.43359375,-26.3671875
-50.78125,-21.484375,-46.38671875,-35.15625
-41.50390625,-18.06640625,-41.9921875,-34.66796875
-35.15625,-74.21875,-39.0625,-33.203125
-37.109375,-80.56640625,-42.96875,-29.296875
-38.57421875,-53.7109375,-41.015625,-29.296875
-34.1796875,-34.66796875,-42.48046875,-30.2734375
-35.64453125,-39.55078125,-46.875,-29.296875
-42.96875,-72.75390625,-46.875,-34.66796875
-50.29296875,-75.68359375,-48.828125,-36.62109375
-56.640625,-54.19921875,-48.33984375,-36.1328125
-48.828125,-37.59765625,-42.96875,-32.71484375
-42.96875,-46.38671875,-44.921875,-41.015625
-36.62109375,-46.875,-45.41015625,-50.29296875
-39.55078125,-45.41015625,-39.55078125,-52.734375
-43.45703125,-81.0546875,-43.9453125,-55.17578125
-41.015625,-57.6171875,-50.78125,-50.78125
-38.57421875,-39.55078125,-50.78125,-45.8984375
-37.109375,-61.5234375,-44.921875,-43.9453125
-42.48046875,-74.70703125,-42.48046875,-49.8046875
-57.12890625,-62.5,-45.8984375,-46.38671875
-56.640625,-45.41015625,-44.921875,-39.55078125
-41.50390625,-33.203125,-43.9453125,-36.1328125
-43.45703125,-47.8515625,-48.33984375,-38.57421875
-49.8046875,-75.68359375,-51.26953125,-51.26953125
-57.6171875,-53.7109375,-53.7109375,-48.33984375
-54.6875,-24.4140625,-51.26953125,-43.9453125
-45.41015625,-31.73828125,-50.78125,-51.7578125
-44.43359375,-50.29296875,-52.24609375,-48.828125
-44.921875,-66.89453125,-47.36328125,-46.38671875
-46.38671875,-53.7109375,-40.0390625,-43.45703125
-48.828125,-36.62109375,-42.48046875,-46.38671875
-30.2734375,-30.2734375,-44.921875,-43.9453125
-36.1328125,-43.45703125,-41.9921875,-44.43359375
-36.62109375,-62.5,-45.8984375,-43.45703125
-47.8515625,-52.24609375,-52.734375,-38.0859375
-62.98828125,-54.6875,-51.7578125,-45.8984375
-46.875,-32.2265625,-47.8515625,-54.6875
-42.48046875,-16.11328125,-46.38671875,-58.59375
-58.10546875,-76.171875,-44.921875,-61.03515625
-69.82421875,-88.37890625,-41.50390625,-58.10546875
-63.96484375,-49.31640625,-37.109375,-49.31640625
-59.08203125,-33.203125,-34.1796875,-38.0859375
-48.33984375,-43.9453125,-41.9921875,-34.1796875
-52.24609375,-66.89453125,-49.8046875,-38.57421875
-60.05859375,-77.1484375,-50.29296875,-43.9453125
-61.5234375,-64.94140625,-53.7109375,-49.8046875
-55.17578125,-30.76171875,-50.78125,-44.43359375
-52.24609375,-39.0625,-45.41015625,-46.38671875
-53.22265625,-59.08203125,-48.828125,-57.12890625
-56.15234375,-51.26953125,-51.26953125,-64.94140625
-53.7109375,-54.6875,-49.31640625,-66.40625
-56.640625,-52.24609375,-53.7109375,-61.5234375
-52.734375,-37.59765625,-50.78125,-55.6640625
-39.0625,-49.8046875,-47.36328125,-52.734375
-48.828125,-69.3359375,-54.6875,-54.19921875
-49.31640625,-52.734375,-52.734375,-45.41015625
-52.24609375,-20.99609375,-49.31640625,-45.41015625
-53.7109375,-19.53125,-51.26953125,-52.734375
-42.96875,-35.15625,-52.734375,-49.8046875
-47.36328125,-68.359375,-50.78125,-48.828125
-56.15234375,-58.10546875,-48.33984375,-41.015625
-55.17578125,0.9765625,-44.921875,-31.25
-47.36328125,-37.59765625,-39.55078125,-32.2265625
-48.33984375,-63.4765625,-35.64453125,-31.25
-41.015625,-51.26953125,-42.96875,-27.83203125
-45.8984375,-81.54296875,-53.7109375,-27.83203125
-56.15234375,-42.48046875,-53.22265625,-30.76171875
-46.875,-42.48046875,-51.26953125,-38.57421875
-46.38671875,-74.21875,-52.734375,-47.8515625
-53.7109375,-78.125,-54.19921875,-57.6171875
-67.3828125,-69.3359375,-57.12890625,-61.03515625
-79.1015625,-46.38671875,-60.546875,-62.98828125
-68.359375,-41.9921875,-59.5703125,-63.96484375
-61.03515625,-47.36328125,-58.10546875,-65.91796875
-65.4296875,-77.63671875,-59.5703125,-68.359375
-73.73046875,-88.8671875,-61.5234375,-68.84765625
-72.265625,-63.4765625,-67.3828125,-70.3125
-62.5,-36.1328125,-63.96484375,-61.5234375
-65.4296875,-36.1328125,-59.08203125,-65.4296875
-58.10546875,-62.98828125,-61.5234375,-74.21875
-68.359375,-85.44921875,-60.546875,-64.453125
-76.66015625,-56.15234375,-60.546875,-55.17578125
-56.640625,-21.484375,-56.15234375,-50.78125
-57.12890625,-41.50390625,-53.7109375,-48.828125
-52.24609375,-64.94140625,-57.6171875,-51.26953125
-55.17578125,-65.4296875,-55.6640625,-48.33984375
-76.66015625,-85.9375,-57.12890625,-46.875
-57.6171875,-54.19921875,-59.5703125,-43.9453125
-47.36328125,-39.0625,-55.17578125,-44.921875
-43.45703125,-64.94140625,-55.17578125,-57.12890625
-58.10546875,-69.82421875,-57.6171875,-59.5703125
-71.77734375,-58.59375,-58.59375,-54.6875
-56.15234375,-36.62109375,-59.08203125,-45.8984375
-43.45703125,-31.73828125,-58.59375,-50.29296875
-51.26953125,-59.08203125,-60.05859375,-59.5703125
-62.98828125,-101.07421875,-62.01171875,-61.03515625
-63.4765625,-71.2890625,-67.3828125,-67.3828125
-70.3125,-7.8125,-66.89453125,-64.453125
-72.265625,-44.921875,-62.98828125,-61.03515625
-70.3125,-86.9140625,-68.359375,-77.1484375
-79.58984375,-76.171875,-67.87109375,-78.125
-73.2421875,-61.03515625,-64.94140625,-72.75390625
-58.59375,-34.1796875,-62.01171875,-71.77734375
-46.875,-27.34375,-56.640625,-62.01171875
-47.36328125,-50.29296875,-56.640625,-59.08203125
-56.15234375,-69.82421875,-56.640625,-57.12890625
-55.6640625,-51.26953125,-53.7109375,-58.10546875
-53.7109375,-29.78515625,-51.7578125,-48.828125
-45.8984375,-21.484375,-49.31640625,-43.45703125
-45.41015625,-31.25,-49.8046875,-45.8984375
-19.53125,-64.453125,-55.6640625,-26.3671875
-27.34375,-73.2421875,-60.05859375,-38.57421875
-67.87109375,-45.8984375,-56.640625,-68.359375
-61.5234375,-21.97265625,-53.7109375,-64.453125
-55.6640625,-31.73828125,-54.6875,-56.640625
-74.21875,-44.43359375,-61.5234375,-66.40625
-89.35546875,-47.36328125,-66.40625,-79.1015625
-94.7265625,-15.625,-69.82421875,-97.16796875
-82.51953125,3.41796875,-71.2890625,-109.375
-65.91796875,-6.8359375,-65.4296875,-107.91015625
-76.171875,-4.8828125,-67.3828125,-115.72265625
-84.9609375,2.9296875,-73.2421875,-111.81640625
-83.49609375,-2.44140625,-72.265625,-109.86328125
-69.82421875,8.7890625,-74.21875,-103.515625
-61.5234375,8.30078125,-71.2890625,-90.33203125
-64.453125,-24.4140625,-66.40625,-90.8203125
-76.66015625,-32.2265625,-73.73046875,-98.6328125
-78.61328125,-8.30078125,-77.1484375,-96.19140625
-62.5,16.6015625,-67.3828125,-87.40234375
-51.26953125,2.44140625,-62.01171875,-86.42578125
-64.453125,-17.578125,-61.5234375,-79.1015625
-76.66015625,-29.78515625,-57.6171875,-72.265625
-65.91796875,-10.25390625,-57.12890625,-64.453125
-57.6171875,31.73828125,-60.05859375,-52.734375
-48.33984375,-0.48828125,-57.6171875,-63.4765625
-41.50390625,-47.36328125,-54.6875,-68.84765625
-44.921875,-46.38671875,-50.78125,-63.4765625
-48.33984375,-21.97265625,-51.26953125,-57.6171875
-44.43359375,5.37109375,-51.7578125,-44.43359375
-33.69140625,11.71875,-52.24609375,-48.33984375
-21.484375,-34.66796875,-56.15234375,-58.59375
-32.71484375,-56.15234375,-61.03515625,-58.10546875
-49.8046875,-38.0859375,-64.94140625,-51.26953125
-44.43359375,-28.3203125,-66.40625,-48.828125
-34.66796875,-20.01953125,-58.10546875,-48.828125
-31.73828125,-5.37109375,-52.734375,-53.22265625
-36.62109375,-47.36328125,-52.24609375,-52.734375
-37.109375,-63.96484375,-48.33984375,-38.0859375
-32.71484375,-22.4609375,-41.9921875,-29.296875
-32.2265625,-17.578125,-41.50390625,-39.55078125
-31.73828125,-43.9453125,-45.41015625,-45.41015625
-37.109375,-58.10546875,-46.875,-41.9921875
-41.50390625,-60.546875,-45.41015625,-38.57421875
-41.50390625,-39.0625,-44.43359375,-39.55078125
-34.1796875,-17.578125,-40.0390625,-38.57421875
-39.0625,-49.8046875,-37.59765625,-40.52734375
-40.52734375,-56.640625,-36.62109375,-49.8046875
-38.57421875,-29.296875,-39.0625,-46.875
-52.24609375,-38.57421875,-40.0390625,-44.921875
-38.0859375,-39.0625,-34.1796875,-43.45703125
-38.0859375,-30.76171875,-31.73828125,-44.43359375
-51.7578125,-61.03515625,-33.203125,-48.828125
-41.9921875,-61.03515625,-35.15625,-44.921875
-59.08203125,-25.87890625,-37.59765625,-42.48046875
-52.734375,-15.625,-35.15625,-44.921875
-34.66796875,-29.296875,-32.71484375,-41.50390625
-39.0625,-49.31640625,-33.69140625,-35.64453125
-41.50390625,-49.31640625,-33.69140625,-31.73828125
-49.31640625,-35.64453125,-37.109375,-36.62109375
-26.85546875,-5.37109375,-37.109375,-41.50390625
-8.7890625,-17.578125,-36.1328125,-43.9453125
-20.5078125,-70.80078125,-35.15625,-41.50390625
-30.2734375,-71.2890625,-35.64453125,-38.57421875
-37.59765625,-39.55078125,-38.57421875,-41.50390625
-41.9921875,-14.16015625,-42.48046875,-46.38671875
-32.71484375,-26.3671875,-43.9453125,-47.8515625
-23.92578125,-55.6640625,-47.8515625,-49.8046875
-27.34375,-56.15234375,-47.8515625,-40.52734375
-33.69140625,-37.59765625,-40.52734375,-26.85546875
-38.0859375,-16.11328125,-38.57421875,-36.1328125
-33.203125,-24.90234375,-40.52734375,-37.59765625
-29.78515625,-29.78515625,-43.9453125,-34.1796875
-31.73828125,-62.01171875,-43.9453125,-33.203125
-39.55078125,-67.3828125,-46.38671875,-39.55078125
-49.31640625,-24.4140625,-49.31640625,-34.1796875
-49.8046875,-40.0390625,-46.875,-31.73828125
-34.66796875,-50.78125,-38.0859375,-39.0625
-39.55078125,-52.734375,-35.64453125,-38.57421875
-45.8984375,-45.8984375,-41.015625,-39.55078125
-39.55078125,-23.4375,-39.55078125,-31.73828125
-29.78515625,-20.5078125,-38.0859375,-38.57421875
-29.296875,-41.015625,-40.52734375,-44.43359375
-39.55078125,-50.29296875,-42.48046875,-41.9921875
-38.0859375,-26.85546875,-41.50390625,-39.0625
-30.76171875,-18.5546875,-37.109375,-34.66796875
-29.296875,-24.4140625,-37.59765625,-46.38671875
-31.25,-43.45703125,-39.55078125,-54.19921875
-22.94921875,-62.98828125,-39.55078125,-45.8984375
-41.015625,-44.43359375,-37.59765625,-41.9921875
-54.19921875,-25.87890625,-38.0859375,-52.734375
-44.43359375,-34.66796875,-45.41015625,-46.875
-38.57421875,-42.48046875,-45.41015625,-34.1796875
-34.66796875,-60.05859375,-46.38671875,-40.0390625
-39.0625,-66.89453125,-47.8515625,-41.9921875
-41.50390625,-37.109375,-38.0859375,-35.15625
-37.109375,-3.90625,-35.15625,-26.85546875
-40.52734375,-46.38671875,-37.109375,-28.3203125
-43.9453125,-86.42578125,-39.0625,-45.41015625
-51.7578125,-66.89453125,-41.50390625,-45.41015625
-54.19921875,-38.0859375,-42.96875,-40.0390625
-41.9921875,-24.90234375,-46.38671875,-42.96875
-33.69140625,-36.1328125,-40.0390625,-44.43359375
-32.71484375,-62.01171875,-38.0859375,-44.921875
-38.57421875,-54.6875,-42.48046875,-46.875
-30.2734375,-16.6015625,-42.96875,-41.015625
-22.94921875,-32.71484375,-45.41015625,-41.015625
-28.3203125,-45.41015625,-47.36328125,-44.921875
-26.3671875,-28.80859375,-43.45703125,-42.48046875
-31.25,-62.01171875,-43.9453125,-48.828125
-48.33984375,-73.2421875,-48.33984375,-49.8046875
-37.109375,-30.2734375,-41.50390625,-43.9453125
-23.92578125,-27.34375,-34.66796875,-35.15625
-41.015625,-47.36328125,-42.48046875,-47.8515625
-63.4765625,-61.03515625,-46.875,-54.6875
-66.40625,-47.36328125,-47.36328125,-44.43359375
-49.31640625,-20.01953125,-46.38671875,-42.48046875
-41.015625,-32.71484375,-48.33984375,-47.8515625
-42.48046875,-55.17578125,-49.8046875,-57.6171875
-49.31640625,-64.453125,-45.8984375,-57.6171875
-54.19921875,-35.15625,-47.36328125,-58.59375
-41.9921875,-22.4609375,-46.38671875,-54.19921875
-45.8984375,-48.828125,-49.31640625,-49.31640625
-47.36328125,-52.734375,-44.921875,-51.26953125
-40.52734375,-60.05859375,-36.1328125,-42.96875
-62.98828125,-73.2421875,-48.828125,-53.22265625
-64.94140625,-39.55078125,-50.78125,-54.19921875
-56.15234375,-30.76171875,-46.38671875,-43.45703125
-53.7109375,-46.38671875,-48.828125,-48.33984375
-45.8984375,-64.453125,-50.29296875,-57.12890625
-57.12890625,-70.80078125,-53.22265625,-64.94140625
-56.640625,-17.578125,-53.22265625,-55.17578125
-31.73828125,3.90625,-50.78125,-45.8984375
-38.0859375,-52.24609375,-53.22265625,-47.8515625
-45.8984375,-70.80078125,-49.8046875,-46.38671875
-43.9453125,-61.03515625,-44.921875,-43.45703125
-50.29296875,-65.4296875,-51.7578125,-44.921875
-45.41015625,-33.69140625,-53.7109375,-54.19921875
-31.73828125,-39.0625,-48.828125,-56.640625
-38.57421875,-70.80078125,-49.8046875,-49.8046875
-50.78125,-71.77734375,-54.6875,-46.38671875
-53.7109375,-48.828125,-54.19921875,-47.8515625
-41.50390625,-33.203125,-49.8046875,-45.41015625
-44.43359375,-37.59765625,-49.31640625,-46.38671875
-59.08203125,-47.36328125,-51.7578125,-54.19921875
-56.640625,-81.54296875,-50.29296875,-53.7109375
-58.59375,-66.89453125,-44.921875,-48.828125
-51.7578125,-19.53125,-45.8984375,-45.41015625
-53.7109375,-41.015625,-53.22265625,-59.08203125
-56.15234375,-69.3359375,-53.22265625,-69.3359375
-57.12890625,-57.6171875,-55.17578125,-63.96484375
-71.77734375,-62.01171875,-61.03515625,-61.03515625
-54.6875,-47.36328125,-51.7578125,-49.31640625
-34.1796875,-42.48046875,-45.41015625,-37.109375
-41.015625,-65.91796875,-45.8984375,-41.9921875
-51.7578125,-70.3125,-46.38671875,-51.26953125
-60.05859375,-28.80859375,-49.8046875,-51.7578125
-65.91796875,-33.69140625,-48.33984375,-52.24609375
-53.7109375,-65.91796875,-52.734375,-63.4765625
-48.828125,-63.96484375,-57.12890625,-62.98828125
-50.29296875,-71.77734375,-54.19921875,-60.05859375
-47.8515625,-66.89453125,-51.26953125,-61.5234375
-48.828125,-44.43359375,-53.22265625,-59.5703125
-52.24609375,-35.64453125,-56.15234375,-70.3125
-62.5,-62.5,-58.10546875,-73.73046875
-62.01171875,-69.82421875,-59.08203125,-58.59375
-54.6875,-79.1015625,-60.546875,-53.22265625
-56.15234375,-53.22265625,-59.5703125,-55.17578125
-54.6875,-24.90234375,-55.6640625,-55.6640625
-48.828125,-72.75390625,-50.78125,-61.5234375
-56.640625,-88.8671875,-46.875,-56.640625
-65.4296875,-66.40625,-49.31640625,-46.875
-52.734375,-46.875,-48.33984375,-51.26953125
-34.1796875,-45.8984375,-43.9453125,-56.15234375
-45.8984375,-58.10546875,-47.8515625,-55.17578125
-50.29296875,-70.80078125,-48.33984375,-54.19921875
-54.19921875,-72.75390625,-44.921875,-46.38671875
-49.8046875,-42.48046875,-47.36328125,-45.41015625
-35.15625,-24.90234375,-48.33984375,-44.921875
-41.50390625,-41.50390625,-48.33984375,-49.8046875
-43.9453125,-41.50390625,-42.96875,-55.6640625
-56.640625,-67.3828125,-42.96875,-47.36328125
-55.17578125,-81.54296875,-46.875,-43.45703125
-40.0390625,-44.43359375,-45.41015625,-43.45703125
-54.6875,-45.8984375,-46.38671875,-55.17578125
-57.6171875,-57.6171875,-46.875,-62.98828125
-46.875,-70.80078125,-45.8984375,-56.15234375
-43.9453125,-54.19921875,-44.43359375,-49.8046875
-40.52734375,-20.5078125,-39.55078125,-42.48046875
-42.96875,-31.25,-42.48046875,-43.9453125
-34.66796875,-60.05859375,-50.29296875,-51.26953125
-43.45703125,-66.40625,-51.7578125,-46.38671875
-60.546875,-21.484375,-47.36328125,-38.57421875
-55.17578125,-23.92578125,-44.43359375,-36.62109375
-40.0390625,-51.26953125,-41.015625,-30.2734375
-51.7578125,-58.10546875,-43.9453125,-37.109375
-59.08203125,-78.125,-40.0390625,-40.0390625
-51.26953125,-51.26953125,-36.1328125,-29.78515625
-48.33984375,-28.3203125,-36.62109375,-20.01953125
-45.41015625,-34.1796875,-35.15625,-24.90234375
-51.7578125,-55.17578125,-41.015625,-38.0859375
-59.08203125,-64.453125,-45.41015625,-41.50390625
-62.5,-56.15234375,-45.41015625,-38.57421875
-43.45703125,-20.5078125,-41.015625,-35.15625
-23.92578125,-5.37109375,-40.0390625,-44.921875
-39.0625,-73.2421875,-42.96875,-50.78125
-53.22265625,-86.42578125,-46.38671875,-48.33984375
-52.734375,-47.8515625,-47.8515625,-41.015625
-41.015625,-31.73828125,-46.875,-33.69140625
-28.80859375,-20.5078125,-53.22265625,-35.15625
-37.109375,-42.96875,-50.78125,-36.1328125
-46.38671875,-85.9375,-48.828125,-43.9453125
-57.12890625,-72.75390625,-53.7109375,-47.36328125
-70.3125,-34.66796875,-50.29296875,-52.24609375
-55.6640625,-21.97265625,-43.9453125,-58.10546875
-45.8984375,-40.52734375,-40.0390625,-59.5703125
-60.05859375,-52.734375,-45.8984375,-73.73046875
-67.3828125,-80.078125,-54.19921875,-79.1015625
-77.1484375,-67.3828125,-53.7109375,-70.80078125
-76.66015625,-30.76171875,-53.22265625,-65.91796875
-65.91796875,-53.22265625,-53.7109375,-63.4765625
-61.03515625,-62.5,-53.7109375,-59.5703125
-68.359375,-64.94140625,-58.59375,-58.59375
-78.125,-60.546875,-56.15234375,-50.78125
-63.96484375,-25.390625,-50.29296875,-41.015625
-40.52734375,-21.97265625,-51.26953125,-43.45703125
-36.62109375,-69.3359375,-52.24609375,-47.36328125
-39.0625,-63.96484375,-55.17578125,-46.38671875
-51.26953125,-4.39453125,-52.734375,-42.96875
-53.22265625,-12.20703125,-54.19921875,-52.734375
-47.8515625,-52.734375,-54.6875,-56.640625
-53.7109375,-49.8046875,-46.875,-56.15234375
-66.40625,-50.29296875,-46.38671875,-66.40625
-66.40625,-49.8046875,-48.33984375,-63.4765625
-58.10546875,-21.484375,-50.78125,-54.6875
-46.875,-27.83203125,-53.22265625,-60.546875
-33.69140625,-62.98828125,-51.26953125,-59.08203125
-51.7578125,-57.12890625,-49.8046875,-59.08203125
-58.10546875,-33.69140625,-49.8046875,-57.6171875
-47.8515625,-11.23046875,-46.875,-42.96875
-46.38671875,-1.953125,-43.45703125,-37.59765625
-41.015625,-45.41015625,-44.921875,-46.38671875
-37.109375,-77.63671875,-45.41015625,-48.828125
-46.875,-51.7578125,-46.38671875,-47.36328125
-49.31640625,-18.5546875,-42.48046875,-47.8515625
-44.43359375,-16.11328125,-38.0859375,-41.015625
-37.109375,-37.109375,-36.1328125,-32.2265625
-46.875,-59.08203125,-37.109375,-35.64453125
-57.6171875,-54.6875,-41.50390625,-44.43359375
-51.7578125,-24.4140625,-40.0390625,-39.0625
-39.55078125,-21.484375,-37.109375,-38.57421875
-51.26953125,-54.6875,-35.64453125,-41.9921875
-56.640625,-45.8984375,-35.64453125,-38.57421875
-42.96875,-42.48046875,-37.59765625,-36.62109375
-36.62109375,-43.9453125,-37.109375,-36.62109375
-29.78515625,-22.94921875,-37.59765625,-47.36328125
-30.2734375,-57.12890625,-41.015625,-51.7578125
-44.43359375,-78.125,-40.0390625,-45.41015625
-55.6640625,-56.15234375,-35.64453125,-40.0390625
-53.7109375,-29.78515625,-34.1796875,-45.8984375
-38.0859375,-14.6484375,-36.1328125,-38.0859375
-43.45703125,-34.1796875,-33.69140625,-31.25
-46.875,-66.89453125,-33.203125,-35.64453125
-50.78125,-65.4296875,-38.0859375,-29.78515625
-49.31640625,-17.08984375,-40.0390625,-25.87890625
-17.08984375,-13.18359375,-36.1328125,-22.4609375
-8.7890625,-50.29296875,-37.109375,-27.83203125
-24.4140625,-62.5,-39.55078125,-30.76171875
-38.0859375,-62.01171875,-37.59765625,-28.3203125
-51.7578125,-20.01953125,-39.55078125,-35.15625
-52.24609375,2.44140625,-43.45703125,-38.0859375
-36.1328125,-30.2734375,-42.48046875,-42.48046875
-33.203125,-54.19921875,-43.45703125,-42.96875
-38.0859375,-61.5234375,-42.96875,-47.36328125
-51.26953125,-36.62109375,-49.8046875,-51.26953125
-49.8046875,-17.578125,-56.640625,-53.7109375
-34.66796875,-10.7421875,-49.8046875,-49.8046875
-51.26953125,-45.8984375,-47.36328125,-48.33984375
-67.87109375,-83.0078125,-51.7578125,-51.26953125
-48.828125,-56.640625,-51.26953125,-44.921875
-41.9921875,-22.94921875,-48.828125,-41.015625
-38.57421875,-32.2265625,-41.50390625,-34.1796875
-32.71484375,-59.5703125,-40.52734375,-34.1796875
-34.1796875,-50.29296875,-41.50390625,-33.203125
-35.15625,-36.62109375,-37.59765625,-25.390625
-28.3203125,-10.7421875,-41.50390625,-27.83203125
-24.4140625,-22.94921875,-38.0859375,-28.80859375
-32.2265625,-47.36328125,-37.59765625,-41.015625
-48.33984375,-39.55078125,-33.69140625,-43.9453125
-49.8046875,-45.8984375,-28.3203125,-31.73828125
-40.0390625,-35.64453125,-35.15625,-37.59765625
-42.48046875,-20.01953125,-38.0859375,-45.41015625
-43.9453125,-49.31640625,-39.55078125,-46.875
-52.734375,-65.4296875,-41.50390625,-38.0859375
-65.91796875,-58.10546875,-44.921875,-34.66796875
-50.29296875,-35.64453125,-42.96875,-34.66796875
-42.96875,-29.78515625,-40.52734375,-33.69140625
-42.48046875,-45.41015625,-41.9921875,-40.0390625
-21.97265625,-61.5234375,-38.57421875,-28.3203125
-45.41015625,-49.8046875,-36.62109375,-26.3671875
-66.40625,0.0,-41.50390625,-41.9921875
-50.78125,-27.83203125,-44.43359375,-36.1328125
-41.9921875,-76.66015625,-41.9921875,-44.921875
-59.5703125,-70.3125,-41.015625,-51.26953125
-60.546875,-55.6640625,-39.55078125,-36.1328125
-51.7578125,-34.1796875,-41.50390625,-50.29296875
-54.6875,-28.80859375,-43.45703125,-56.640625
-41.9921875,-44.43359375,-39.0625,-54.6875
-42.48046875,-61.5234375,-40.52734375,-57.12890625
-51.26953125,-59.5703125,-40.52734375,-51.7578125
-41.015625,-30.76171875,-38.0859375,-47.8515625
-43.9453125,-14.6484375,-37.59765625,-48.828125
-54.6875,-14.6484375,-38.0859375,-49.8046875
-53.7109375,-65.91796875,-44.921875,-58.59375
-55.17578125,-77.1484375,-51.7578125,-63.4765625
-50.78125,-31.25,-48.33984375,-49.8046875
-53.22265625,-33.69140625,-45.8984375,-44.43359375
-48.828125,-40.0390625,-50.78125,-46.38671875
-43.9453125,-60.546875,-52.24609375,-46.875
-59.5703125,-68.84765625,-51.7578125,-45.41015625
-67.87109375,-36.62109375,-50.29296875,-47.36328125
-57.12890625,-23.92578125,-46.875,-45.8984375
-57.12890625,-45.8984375,-50.29296875,-54.19921875
-54.19921875,-57.12890625,-51.26953125,-64.453125
-58.59375,-47.36328125,-49.31640625,-53.22265625
-64.453125,-49.8046875,-50.78125,-42.96875
-53.22265625,-42.48046875,-48.33984375,-40.52734375
-30.76171875,-34.66796875,-42.96875,-37.59765625
-27.83203125,-54.6875,-49.8046875,-53.22265625
-48.828125,-60.546875,-60.05859375,-62.01171875
-59.5703125,-39.55078125,-59.08203125,-44.43359375
-57.6171875,-35.15625,-55.17578125,-43.45703125
-53.22265625,-37.109375,-56.640625,-53.7109375
-52.24609375,-53.7109375,-58.10546875,-56.15234375
-59.5703125,-75.68359375,-62.01171875,-65.4296875
-61.5234375,-58.10546875,-59.5703125,-59.5703125
-55.6640625,-10.7421875,-53.22265625,-52.734375
-27.34375,-40.0390625,-49.31640625,-55.17578125
-11.71875,-68.84765625,-43.45703125,-37.59765625
-42.96875,-61.5234375,-47.36328125,-36.62109375
-60.05859375,-56.15234375,-54.6875,-42.48046875
-41.9921875,-33.69140625,-53.22265625,-26.3671875
-37.59765625,-24.4140625,-46.38671875,-28.80859375
-45.8984375,-52.24609375,-43.45703125,-43.9453125
-54.6875,-71.77734375,-49.8046875,-50.78125
-47.8515625,-55.6640625,-54.19921875,-52.734375
-41.015625,-45.41015625,-52.24609375,-45.8984375
-47.8515625,-34.66796875,-50.78125,-44.921875
-45.41015625,-22.94921875,-55.17578125,-54.6875
-46.875,-70.80078125,-55.6640625,-58.10546875
-48.33984375,-103.515625,-54.6875,-53.22265625
-37.59765625,-46.875,-59.5703125,-46.875
-41.9921875,-29.296875,-53.22265625,-42.96875
-56.640625,-56.15234375,-54.19921875,-52.24609375
-61.5234375,-82.03125,-58.10546875,-59.5703125
-68.84765625,-85.9375,-62.01171875,-57.6171875
-67.87109375,-53.7109375,-64.94140625,-49.8046875
-48.828125,-25.390625,-60.05859375,-48.33984375
-43.9453125,-31.25,-58.59375,-55.17578125
-60.546875,-72.75390625,-61.03515625,-58.10546875
-62.5,-55.6640625,-59.08203125,-55.6640625
-62.98828125,-41.50390625,-54.19921875,-54.6875
-58.59375,-65.4296875,-45.41015625,-50.29296875
-45.41015625,-52.734375,-43.45703125,-47.36328125
-48.33984375,-58.59375,-45.41015625,-49.31640625
-59.5703125,-77.1484375,-48.33984375,-46.875
-62.01171875,-60.546875,-52.24609375,-39.55078125
-67.87109375,-43.45703125,-51.26953125,-32.2265625
-56.15234375,-37.59765625,-44.921875,-36.1328125
-43.45703125,-56.15234375,-45.8984375,-48.33984375
-48.828125,-83.49609375,-48.33984375,-51.7578125
-55.17578125,-56.640625,-40.52734375,-46.38671875
-52.734375,-10.25390625,-41.015625,-42.96875
-42.48046875,-47.8515625,-44.921875,-45.8984375
-44.921875,-70.3125,-47.8515625,-51.26953125
-43.9453125,-55.17578125,-55.17578125,-46.875
-42.96875,-69.3359375,-52.734375,-40.52734375
-61.03515625,-47.8515625,-51.7578125,-37.59765625
-58.59375,-26.3671875,-52.734375,-43.45703125
-41.50390625,-53.22265625,-48.33984375,-45.8984375
-50.29296875,-78.125,-50.78125,-47.8515625
-51.7578125,-48.33984375,-52.24609375,-49.31640625
-45.41015625,-41.015625,-53.7109375,-43.9453125
-52.24609375,-37.109375,-52.734375,-49.31640625
-63.4765625,-50.78125,-51.7578125,-57.12890625
-41.9921875,-97.65625,-62.5,-62.01171875
-44.43359375,-78.61328125,-66.89453125,-62.01171875
-61.5234375,-41.9921875,-62.01171875,-49.31640625
-58.59375,-40.0390625,-61.5234375,-52.24609375
-47.8515625,-50.29296875,-60.546875,-66.89453125
-58.10546875,-57.12890625,-58.59375,-65.91796875
-67.3828125,-67.87109375,-61.03515625,-51.7578125
-64.453125,-45.8984375,-58.10546875,-42.96875
-48.33984375,-26.85546875,-58.10546875,-43.9453125
-40.52734375,-53.22265625,-63.4765625,-54.6875
-48.33984375,-55.17578125,-62.5,-60.546875
-45.8984375,-60.05859375,-57.12890625,-54.19921875
-47.36328125,-57.6171875,-54.6875,-48.33984375
-52.24609375,-39.0625,-55.6640625,-47.8515625
-52.734375,-50.29296875,-53.22265625,-51.7578125
-45.41015625,-69.3359375,-48.33984375,-53.7109375
-50.78125,-67.87109375,-45.41015625,-53.22265625
-57.12890625,-41.015625,-50.29296875,-53.7109375
-59.08203125,-38.57421875,-55.17578125,-55.17578125
-62.5,-46.875,-53.7109375,-54.6875
-44.921875,-56.640625,-46.875,-54.19921875
-42.48046875,-75.68359375,-45.41015625,-45.41015625
-66.89453125,-48.33984375,-53.22265625,-38.57421875
-62.01171875,-17.578125,-55.6640625,-39.0625
-46.38671875,-47.36328125,-55.6640625,-44.43359375
-54.19921875,-77.63671875,-60.05859375,-56.15234375
-62.01171875,-75.1953125,-52.734375,-57.12890625
-67.3828125,-62.98828125,-48.828125,-49.8046875
-54.19921875,-40.52734375,-49.8046875,-45.41015625
-44.921875,-37.109375,-48.828125,-46.875
-42.96875,-70.80078125,-51.26953125,-51.26953125
-49.8046875,-76.171875,-49.31640625,-60.05859375
-53.7109375,-52.24609375,-45.8984375,-61.5234375
-45.8984375,-41.9921875,-42.96875,-54.19921875
-35.15625,-36.1328125,-41.50390625,-53.7109375
-43.45703125,-39.0625,-43.45703125,-56.15234375
-45.41015625,-65.91796875,-45.41015625,-52.24609375
-59.5703125,-91.796875,-43.45703125,-49.31640625
-64.453125,-51.26953125,-38.0859375,-41.015625
-52.734375,-28.3203125,-33.69140625,-43.9453125
-57.12890625,-59.08203125,-33.203125,-48.828125
-47.36328125,-81.54296875,-34.66796875,-39.0625
-52.24609375,-74.70703125,-34.1796875,-39.55078125
-64.453125,-50.29296875,-34.66796875,-45.8984375
-44.921875,-30.76171875,-30.76171875,-45.41015625
-45.8984375,-49.8046875,-25.87890625,-38.0859375
-50.29296875,-81.0546875,-24.4140625,-41.015625
-41.9921875,-41.9921875,-20.5078125,-46.38671875
-36.62109375,-29.78515625,-19.53125,-33.203125
-29.296875,-32.2265625,-21.484375,-24.90234375
-23.92578125,-24.4140625,-23.92578125,-31.73828125
-19.53125,-66.89453125,-22.4609375,-34.66796875
-21.97265625,-57.6171875,-24.4140625,-32.71484375
-25.87890625,-16.11328125,-22.4609375,-21.484375
-21.484375,-5.859375,-18.5546875,-22.94921875
-19.53125,-21.97265625,-22.4609375,-31.73828125
-15.625,-34.1796875,-23.92578125,-33.203125
-20.5078125,-29.78515625,-24.90234375,-23.4375
-22.4609375,-4.8828125,-28.80859375,-12.6953125
-8.7890625,14.6484375,-28.80859375,-14.16015625
-5.859375,-21.97265625,-27.34375,-26.3671875
-12.6953125,-55.6640625,-28.3203125,-36.1328125
-23.92578125,-50.29296875,-33.69140625,-34.1796875
-32.2265625,-28.3203125,-29.78515625,-23.4375
-25.87890625,-9.765625,-23.92578125,-19.04296875
-25.87890625,-11.23046875,-24.90234375,-17.578125
-23.4375,-44.921875,-29.296875,-20.01953125
-28.80859375,-63.96484375,-32.2265625,-33.203125
-37.109375,-38.0859375,-30.76171875,-25.87890625
-34.1796875,-10.7421875,-28.80859375,-17.578125
-34.1796875,-17.578125,-28.80859375,-28.3203125
-24.90234375,-21.484375,-26.3671875,-28.3203125
-34.1796875,-59.5703125,-25.87890625,-21.484375
-48.828125,-57.6171875,-32.2265625,-24.90234375
-36.1328125,-20.99609375,-34.1796875,-28.80859375
-16.6015625,-25.390625,-34.66796875,-28.3203125
-27.83203125,-39.0625,-37.109375,-34.66796875
-45.8984375,-41.50390625,-37.109375,-44.921875
-48.33984375,-45.8984375,-36.62109375,-41.9921875
-43.9453125,-14.6484375,-35.15625,-36.62109375
-33.203125,-13.671875,-30.2734375,-43.45703125
-40.52734375,-69.82421875,-32.2265625,-55.6640625
-50.29296875,-66.89453125,-34.1796875,-56.640625
-48.828125,-35.64453125,-33.69140625,-55.17578125
-46.38671875,-31.73828125,-30.76171875,-48.828125
-36.1328125,-29.78515625,-27.34375,-45.8984375
-26.3671875,-39.0625,-31.73828125,-52.734375
-41.015625,-66.89453125,-37.109375,-53.22265625
-53.22265625,-50.78125,-36.62109375,-46.38671875
-42.48046875,-26.3671875,-39.0625,-45.41015625
-29.296875,-16.6015625,-44.921875,-41.50390625
-26.85546875,-32.71484375,-42.48046875,-35.64453125
-36.1328125,-58.59375,-45.41015625,-37.59765625
-51.7578125,-72.75390625,-50.78125,-45.8984375
-49.8046875,-39.0625,-42.48046875,-42.48046875
-49.31640625,-1.953125,-39.55078125,-34.66796875
-51.26953125,-37.59765625,-48.33984375,-43.45703125
-41.50390625,-82.03125,-49.31640625,-47.8515625
-47.36328125,-71.77734375,-50.29296875,-49.31640625
-62.5,-41.9921875,-48.828125,-45.8984375
-53.22265625,-25.390625,-43.9453125,-38.0859375
-37.109375,-28.80859375,-48.33984375,-51.26953125
-49.31640625,-62.5,-53.22265625,-61.5234375
-58.10546875,-83.0078125,-53.22265625,-55.6640625
-66.40625,-48.828125,-53.7109375,-54.19921875
-63.96484375,-28.3203125,-49.8046875,-57.12890625
-55.6640625,-39.0625,-46.875,-60.05859375
-62.5,-43.45703125,-49.31640625,-62.98828125
-62.01171875,-74.70703125,-51.7578125,-62.01171875
-68.359375,-69.3359375,-57.6171875,-61.5234375
-27.34375,-14.6484375,-57.6171875,-39.0625
-1.46484375,-38.0859375,-42.96875,-12.20703125
-44.921875,-76.66015625,-36.62109375,-35.64453125
-66.40625,-72.265625,-41.50390625,-52.24609375
-67.3828125,-62.98828125,-43.45703125,-45.41015625
-59.5703125,-50.78125,-41.015625,-39.55078125
-54.19921875,-72.75390625,-38.57421875,-46.38671875
-64.453125,-83.984375,-35.15625,-53.22265625
-67.3828125,-89.35546875,-34.1796875,-41.50390625
-65.4296875,-74.21875,-35.64453125,-37.59765625
-66.89453125,-74.21875,-39.0625,-40.0390625
-62.01171875,-83.984375,-35.15625,-28.3203125
-51.7578125,-81.54296875,-31.73828125,-24.4140625
-71.77734375,-99.12109375,-35.15625,-43.9453125
-75.68359375,-93.26171875,-37.109375,-44.921875
-70.3125,-63.96484375,-36.62109375,-35.15625
-64.453125,-71.2890625,-34.66796875,-32.2265625
-51.26953125,-85.9375,-38.0859375,-40.52734375
-55.6640625,-93.75,-40.52734375,-52.24609375
-68.84765625,-95.21484375,-38.0859375,-49.31640625
-75.1953125,-54.19921875,-38.57421875,-41.9921875
-68.84765625,-30.2734375,-39.0625,-48.828125
-61.5234375,-78.125,-39.55078125,-55.6640625
-73.2421875,-114.2578125,-40.0390625,-55.17578125
-79.1015625,-93.75,-43.45703125,-51.7578125
-65.91796875,-58.10546875,-49.31640625,-44.921875
-55.6640625,-42.96875,-46.875,-42.48046875
-50.78125,-61.03515625,-42.96875,-43.9453125
-50.29296875,-91.796875,-44.921875,-48.33984375
-59.5703125,-88.8671875,-47.36328125,-50.78125
-64.453125,-42.48046875,-51.7578125,-43.9453125
-43.9453125,-58.10546875,-46.38671875,-32.2265625
-49.8046875,-76.171875,-43.45703125,-35.64453125
-52.24609375,-66.40625,-44.43359375,-45.41015625
-58.59375,-102.5390625,-44.921875,-41.015625
-74.70703125,-95.21484375,-49.31640625,-32.2265625
-56.15234375,-58.59375,-49.31640625,-38.0859375
-45.8984375,-65.4296875,-46.875,-47.36328125
-48.828125,-85.9375,-50.78125,-41.015625
-58.59375,-85.9375,-58.10546875,-27.83203125
-62.5,-63.96484375,-62.98828125,-34.1796875
-59.08203125,-49.8046875,-59.08203125,-39.55078125
-54.19921875,-56.640625,-54.19921875,-37.109375
-54.19921875,-75.1953125,-57.12890625,-49.31640625
-65.91796875,-83.0078125,-61.5234375,-55.6640625
-66.89453125,-51.7578125,-69.82421875,-54.19921875
-54.19921875,-48.828125,-67.3828125,-45.41015625
-52.734375,-81.54296875,-58.59375,-47.36328125
-59.5703125,-82.03125,-62.5,-56.15234375
-62.98828125,-83.984375,-59.08203125,-52.24609375
-54.6875,-69.3359375,-54.19921875,-49.31640625
-53.7109375,-41.9921875,-57.6171875,-48.828125
-52.734375,-42.96875,-63.96484375,-51.26953125
-42.96875,-69.3359375,-61.03515625,-54.6875
-55.17578125,-83.49609375,-60.546875,-52.24609375
-58.10546875,-73.73046875,-59.08203125,-49.31640625
-62.5,-40.52734375,-61.03515625,-47.8515625
-51.7578125,-21.484375,-64.453125,-51.7578125
-35.64453125,-71.77734375,-56.15234375,-51.26953125
-50.78125,-88.8671875,-59.08203125,-51.7578125
-59.08203125,-65.91796875,-63.4765625,-52.734375
-58.59375,-63.96484375,-56.640625,-53.22265625
-48.828125,-53.22265625,-55.6640625,-53.7109375
-39.0625,-54.6875,-57.12890625,-53.22265625
-45.8984375,-82.51953125,-62.01171875,-61.5234375
-49.31640625,-70.80078125,-62.01171875,-63.4765625
-51.7578125,-42.96875,-58.59375,-57.12890625
-48.828125,-51.26953125,-56.640625,-53.7109375
-47.36328125,-63.4765625,-52.734375,-60.546875
-50.78125,-59.5703125,-44.921875,-62.5
-52.24609375,-77.63671875,-46.875,-53.22265625
-63.4765625,-63.96484375,-57.12890625,-46.875
-57.12890625,-39.55078125,-54.19921875,-47.36328125
-49.8046875,-51.26953125,-53.7109375,-54.19921875
-52.734375,-60.05859375,-55.6640625,-56.15234375
-60.546875,-67.87109375,-60.05859375,-55.17578125
-62.98828125,-52.734375,-60.546875,-54.19921875
-48.828125,-41.50390625,-55.17578125,-45.41015625
-44.43359375,-56.640625,-56.640625,-49.8046875
-55.17578125,-83.984375,-58.10546875,-61.03515625
-64.94140625,-74.21875,-55.6640625,-45.8984375
-74.21875,-30.76171875,-56.640625,-41.9921875
-63.4765625,-39.55078125,-59.08203125,-41.015625
-59.5703125,-69.3359375,-59.08203125,-43.9453125
-72.265625,-79.1015625,-58.59375,-58.10546875
-64.453125,-78.125,-53.22265625,-47.36328125
-50.78125,-58.10546875,-51.26953125,-44.43359375
-38.57421875,-25.390625,-51.26953125,-41.9921875
-35.64453125,-42.96875,-52.24609375,-37.59765625
-41.015625,-52.24609375,-55.17578125,-49.31640625
-45.41015625,-54.6875,-54.19921875,-50.78125
-53.22265625,-69.3359375,-55.6640625,-55.17578125
-50.29296875,-30.2734375,-56.15234375,-51.7578125
-42.48046875,-9.765625,-53.22265625,-53.22265625
-47.36328125,-71.77734375,-52.24609375,-58.59375
-48.33984375,-104.00390625,-52.734375,-49.8046875
-42.96875,-66.40625,-54.6875,-43.9453125
-44.43359375,-33.69140625,-48.33984375,-37.109375
-43.45703125,-30.2734375,-47.36328125,-41.015625
-34.66796875,-44.921875,-49.31640625,-48.828125
-38.0859375,-58.59375,-46.38671875,-48.828125
-54.19921875,-65.91796875,-48.828125,-46.38671875
-56.640625,-39.55078125,-47.8515625,-49.31640625
-36.1328125,-22.4609375,-45.8984375,-38.57421875
-23.92578125,-45.41015625,-42.96875,-19.53125
-50.78125,-50.78125,-44.43359375,-49.8046875
-70.80078125,-59.08203125,-46.38671875,-70.80078125
-76.66015625,-52.24609375,-48.33984375,-73.73046875
-86.9140625,-36.1328125,-50.78125,-85.44921875
-89.35546875,-47.8515625,-49.8046875,-83.0078125
-100.5859375,-65.91796875,-50.78125,-90.8203125
-93.26171875,-55.17578125,-54.6875,-96.6796875
-86.42578125,-20.01953125,-54.19921875,-93.26171875
-88.8671875,-0.9765625,-51.7578125,-87.40234375
-83.984375,-16.6015625,-49.8046875,-91.30859375
-84.9609375,-51.7578125,-48.828125,-97.16796875
-86.42578125,-51.26953125,-43.9453125,-90.33203125
-90.8203125,-4.8828125,-42.48046875,-81.54296875
-82.03125,-28.3203125,-46.875,-83.984375
-67.87109375,-43.9453125,-46.875,-80.56640625
-74.70703125,-36.1328125,-50.78125,-83.49609375
-87.40234375,-72.75390625,-52.24609375,-79.58984375
-89.84375,-48.828125,-48.33984375,-64.94140625
-75.1953125,-23.4375,-39.55078125,-63.4765625
-61.03515625,-25.390625,-35.64453125,-63.4765625
-64.94140625,-41.50390625,-42.96875,-65.4296875
-61.03515625,-63.96484375,-41.015625,-58.10546875
-55.17578125,-45.8984375,-40.52734375,-45.8984375
-44.921875,-12.20703125,-42.48046875,-42.48046875
-36.62109375,-16.11328125,-38.0859375,-49.31640625
-37.59765625,-49.8046875,-45.41015625,-58.59375
-49.8046875,-77.63671875,-49.31640625,-48.33984375
-52.734375,-63.4765625,-45.41015625,-35.15625
-43.9453125,-31.25,-45.8984375,-35.64453125
-33.69140625,-14.16015625,-41.015625,-40.52734375
-35.64453125,-41.50390625,-36.62109375,-47.8515625
-48.828125,-79.1015625,-44.921875,-55.17578125
-49.31640625,-56.15234375,-50.29296875,-47.8515625
-40.0390625,-38.0859375,-43.45703125,-40.52734375
-33.203125,-32.2265625,-40.0390625,-41.015625
-38.57421875,-43.45703125,-44.921875,-41.50390625
-42.48046875,-49.31640625,-46.875,-52.734375
-52.24609375,-64.94140625,-47.8515625,-48.828125
-54.6875,-43.45703125,-43.9453125,-35.15625
-41.50390625,-17.08984375,-42.48046875,-37.109375
-36.62109375,-41.9921875,-46.38671875,-41.015625
-47.36328125,-66.89453125,-50.78125,-44.43359375
-52.734375,-64.94140625,-52.24609375,-38.57421875
-47.8515625,-27.34375,-45.8984375,-31.25
-38.0859375,-5.37109375,-41.9921875,-30.76171875
-35.15625,-29.78515625,-42.96875,-32.2265625
-36.62109375,-64.94140625,-43.45703125,-42.48046875
-43.9453125,-59.5703125,-46.875,-44.43359375
-44.43359375,-13.671875,-48.33984375,-40.0390625
-38.57421875,-27.34375,-46.38671875,-39.0625
-40.52734375,-57.12890625,-45.41015625,-46.875
-41.50390625,-41.9921875,-37.109375,-45.8984375
-46.875,-50.78125,-39.55078125,-48.33984375
-51.26953125,-35.15625,-43.45703125,-54.19921875
-61.03515625,-27.34375,-40.52734375,-54.19921875
-59.5703125,-41.015625,-43.45703125,-56.640625
-49.8046875,-56.640625,-38.57421875,-53.22265625
-52.734375,-62.01171875,-35.15625,-49.31640625
-55.17578125,-38.0859375,-41.9921875,-49.31640625
-52.24609375,-22.94921875,-43.45703125,-44.43359375
-48.33984375,-16.11328125,-40.52734375,-41.50390625
-38.0859375,-46.38671875,-41.015625,-38.0859375
-38.57421875,-91.796875,-43.45703125,-43.9453125
-48.33984375,-62.98828125,-43.45703125,-49.8046875
-41.015625,-21.97265625,-39.55078125,-34.1796875
-38.57421875,-39.0625,-39.0625,-29.296875
-30.76171875,-66.40625,-44.921875,-44.43359375
-34.66796875,-57.12890625,-46.38671875,-42.48046875
-41.50390625,-31.73828125,-40.0390625,-30.76171875
-43.45703125,-24.90234375,-39.0625,-33.69140625
-40.52734375,-44.43359375,-46.38671875,-47.8515625
-41.9921875,-60.546875,-45.8984375,-55.6640625
-40.0390625,-48.828125,-47.8515625,-58.10546875
-44.921875,-66.89453125,-51.7578125,-46.38671875
-44.43359375,-45.8984375,-46.875,-39.55078125
-25.87890625,-20.01953125,-46.875,-49.31640625
-39.0625,-68.84765625,-45.41015625,-50.78125
-60.05859375,-82.03125,-45.41015625,-43.9453125
-68.84765625,-50.78125,-50.78125,-46.38671875
-63.96484375,-35.64453125,-48.828125,-46.38671875
-48.33984375,-44.921875,-47.8515625,-45.41015625
-51.7578125,-59.08203125,-55.17578125,-51.7578125
-53.22265625,-70.80078125,-58.10546875,-51.26953125
-52.24609375,-57.12890625,-63.96484375,-51.26953125
-60.05859375,-20.99609375,-64.94140625,-46.38671875
-57.6171875,-39.0625,-60.05859375,-41.015625
-40.52734375,-74.21875,-60.05859375,-40.52734375
-39.55078125,-80.078125,-59.5703125,-41.50390625
-46.38671875,-73.2421875,-58.10546875,-48.33984375
-45.8984375,-44.921875,-59.08203125,-44.43359375
-49.8046875,-25.87890625,-53.22265625,-45.41015625
-51.26953125,-56.640625,-44.43359375,-47.8515625
-57.12890625,-72.265625,-45.8984375,-59.5703125
-69.82421875,-65.91796875,-51.7578125,-74.70703125
-61.5234375,-48.828125,-51.7578125,-70.3125
-71.2890625,-23.92578125,-50.29296875,-65.91796875
-84.47265625,-30.76171875,-46.38671875,-75.1953125
-72.75390625,-84.47265625,-50.78125,-79.1015625
-84.47265625,-94.7265625,-51.7578125,-70.80078125
-81.54296875,-48.33984375,-47.8515625,-61.5234375
-64.94140625,-25.87890625,-47.8515625,-58.10546875
-58.59375,-48.33984375,-48.828125,-65.91796875
-45.41015625,-67.3828125,-45.41015625,-54.6875
-39.0625,-76.171875,-45.8984375,-40.52734375
-36.62109375,-52.734375,-47.36328125,-35.15625
-33.69140625,-19.53125,-47.36328125,-37.109375
-29.78515625,-56.15234375,-43.9453125,-38.57421875
-34.66796875,-69.82421875,-41.50390625,-39.55078125
-41.50390625,-57.12890625,-46.38671875,-41.9921875
-52.24609375,-70.3125,-46.38671875,-40.52734375
-40.0390625,-61.5234375,-46.38671875,-41.015625
-41.50390625,-45.41015625,-44.921875,-44.43359375
-52.24609375,-63.96484375,-48.828125,-56.15234375
-51.7578125,-80.56640625,-53.7109375,-63.4765625
-45.8984375,-64.94140625,-48.33984375,-55.6640625
-47.36328125,-42.48046875,-46.875,-51.7578125
-46.875,-40.0390625,-48.828125,-62.98828125
-45.8984375,-52.24609375,-50.78125,-68.84765625
-58.10546875,-65.4296875,-50.78125,-65.4296875
-56.15234375,-62.01171875,-46.875,-55.17578125
-43.9453125,-23.4375,-45.8984375,-51.7578125
-40.0390625,-12.20703125,-44.43359375,-48.33984375
-28.80859375,-56.640625,-45.41015625,-52.24609375
-33.203125,-89.35546875,-48.33984375,-60.05859375
-49.8046875,-63.4765625,-54.6875,-53.22265625
-52.24609375,-33.203125,-58.10546875,-49.8046875
-35.64453125,-32.2265625,-52.734375,-48.828125
-29.78515625,-43.45703125,-48.33984375,-45.8984375
-42.48046875,-56.640625,-51.26953125,-45.8984375
-43.9453125,-55.6640625,-54.6875,-40.0390625
-30.2734375,-41.015625,-55.17578125,-36.62109375
-26.85546875,-38.57421875,-56.640625,-36.1328125
-42.48046875,-48.828125,-51.7578125,-40.0390625
-49.8046875,-82.03125,-47.8515625,-47.36328125
-50.78125,-77.1484375,-49.31640625,-34.1796875
-38.57421875,-31.73828125,-51.26953125,-31.25
-29.78515625,-45.41015625,-46.38671875,-40.0390625
-34.66796875,-59.08203125,-45.8984375,-39.55078125
-30.2734375,-66.89453125,-52.24609375,-39.0625
-38.0859375,-61.5234375,-54.6875,-45.41015625
-46.38671875,-46.875,-53.7109375,-45.41015625
-43.9453125,-40.52734375,-52.734375,-44.43359375
-45.41015625,-51.7578125,-51.26953125,-50.29296875
-47.36328125,-57.6171875,-48.828125,-57.6171875
-56.15234375,-36.1328125,-50.29296875,-61.03515625
-68.84765625,-45.41015625,-46.875,-58.10546875
-40.52734375,-48.828125,-46.38671875,-55.17578125
-28.80859375,-41.015625,-49.31640625,-57.6171875
-51.7578125,-58.10546875,-45.41015625,-57.6171875
-58.10546875,-61.03515625,-46.875,-50.29296875
-48.828125,-33.69140625,-49.8046875,-43.9453125
-47.36328125,-29.296875,-51.26953125,-44.43359375
-52.24609375,-47.8515625,-50.29296875,-49.8046875
-55.17578125,-67.3828125,-48.828125,-54.19921875
-63.4765625,-69.82421875,-45.8984375,-41.9921875
-61.5234375,-38.0859375,-48.33984375,-41.50390625
-51.26953125,-13.671875,-50.29296875,-44.43359375
-35.64453125,-49.8046875,-45.41015625,-43.45703125
-49.31640625,-86.42578125,-51.26953125,-51.7578125
-59.5703125,-75.1953125,-52.734375,-58.10546875
-66.40625,-56.15234375,-51.26953125,-54.6875
-56.640625,-40.0390625,-51.7578125,-51.26953125
-37.109375,-30.2734375,-48.828125,-48.828125
-59.08203125,-59.5703125,-51.26953125,-52.734375
-64.94140625,-66.89453125,-47.8515625,-53.7109375
-71.2890625,-54.19921875,-44.921875,-45.8984375
-62.98828125,-53.22265625,-44.43359375,-39.0625
-57.12890625,-31.25,-45.41015625,-41.015625
-52.24609375,-40.52734375,-43.9453125,-44.43359375
-41.9921875,-91.30859375,-43.45703125,-49.8046875
-56.15234375,-87.890625,-49.31640625,-51.26953125
-67.87109375,-49.8046875,-47.36328125,-48.828125
-50.78125,-35.15625,-48.828125,-53.7109375
-40.52734375,-61.03515625,-52.24609375,-58.59375
-66.89453125,-82.51953125,-51.7578125,-57.12890625
-73.73046875,-64.94140625,-54.19921875,-53.22265625
-55.6640625,-44.43359375,-54.6875,-48.828125
-34.1796875,-30.2734375,-53.7109375,-56.15234375
-28.80859375,-50.29296875,-54.19921875,-70.80078125
-42.96875,-69.3359375,-53.7109375,-73.73046875
-73.73046875,-41.9921875,-52.734375,-70.80078125
-85.44921875,-21.97265625,-51.7578125,-51.7578125
-66.89453125,-47.36328125,-49.8046875,-41.015625
-58.10546875,-70.3125,-45.8984375,-58.59375
-52.734375,-67.87109375,-42.48046875,-55.6640625
-63.4765625,-70.80078125,-49.31640625,-46.875
-62.01171875,-44.921875,-52.24609375,-45.8984375
-54.6875,-20.01953125,-46.875,-41.50390625
-56.15234375,-42.96875,-44.921875,-42.96875
-45.41015625,-69.82421875,-45.41015625,-47.36328125
-44.43359375,-79.1015625,-53.7109375,-49.31640625
-49.31640625,-57.12890625,-57.6171875,-49.31640625
-37.59765625,-9.765625,-53.7109375,-43.45703125
-18.06640625,-44.921875,-50.29296875,-40.0390625
-36.62109375,-71.77734375,-49.8046875,-58.10546875
-36.62109375,-58.59375,-50.78125,-65.4296875
-34.1796875,-56.15234375,-50.29296875,-58.59375
-46.875,-29.296875,-49.8046875,-60.05859375
-34.1796875,-33.203125,-50.29296875,-58.10546875
-28.80859375,-62.01171875,-50.78125,-48.33984375
-45.41015625,-74.21875,-56.15234375,-60.05859375
-56.640625,-53.22265625,-59.08203125,-70.80078125
-40.52734375,-37.59765625,-57.6171875,-58.59375
-37.59765625,-38.0859375,-55.17578125,-62.98828125
-44.43359375,-41.015625,-50.78125,-62.01171875
-52.24609375,-67.3828125,-53.7109375,-47.36328125
-47.8515625,-69.3359375,-51.26953125,-40.0390625
-43.45703125,-24.4140625,-42.96875,-38.0859375
-39.0625,-33.69140625,-42.96875,-46.38671875
-25.390625,-62.01171875,-42.96875,-53.22265625
-32.71484375,-50.29296875,-43.9453125,-53.22265625
-48.33984375,-61.03515625,-52.24609375,-51.7578125
-56.15234375,-47.8515625,-58.10546875,-50.29296875
-53.7109375,-38.57421875,-61.03515625,-56.640625
-50.29296875,-46.38671875,-59.08203125,-57.6171875
-44.921875,-51.7578125,-51.7578125,-45.8984375
-39.55078125,-32.2265625,-46.875,-51.7578125
-57.6171875,-36.62109375,-48.33984375,-48.33984375
-56.15234375,-44.43359375,-45.8984375,-44.43359375
-42.96875,-37.59765625,-42.48046875,-43.9453125
-50.29296875,-63.96484375,-43.45703125,-38.57421875
-76.66015625,-69.3359375,-41.50390625,-43.45703125
-74.21875,-40.52734375,-41.50390625,-40.52734375
-37.109375,-30.2734375,-40.0390625,-29.296875
-35.15625,-48.33984375,-38.0859375,-43.9453125
-39.0625,-56.640625,-42.48046875,-44.921875
-59.08203125,-77.1484375,-46.875,-41.015625
-72.265625,-62.01171875,-50.29296875,-48.828125
-69.82421875,-14.6484375,-49.8046875,-55.6640625
-49.8046875,-47.36328125,-45.8984375,-55.6640625
-34.1796875,-84.47265625,-48.33984375,-54.19921875
-44.921875,-68.84765625,-51.7578125,-54.6875
-56.15234375,-57.12890625,-54.6875,-51.26953125
-41.015625,-27.34375,-52.24609375,-46.875
-33.203125,-31.73828125,-46.875,-36.62109375
-31.25,-58.59375,-47.36328125,-34.1796875
-33.203125,-69.3359375,-47.8515625,-39.55078125
-38.0859375,-58.10546875,-48.33984375,-42.96875
-42.48046875,-46.875,-48.828125,-39.0625
-45.41015625,-62.01171875,-48.33984375,-39.0625
-36.1328125,-58.10546875,-49.31640625,-50.78125
-35.15625,-69.82421875,-47.36328125,-49.31640625
-48.33984375,-87.40234375,-48.33984375,-41.9921875
-61.03515625,-53.7109375,-51.26953125,-46.875
-50.78125,-39.55078125,-52.734375,-49.8046875
-54.19921875,-63.4765625,-54.19921875,-49.31640625
-66.40625,-73.73046875,-49.31640625,-52.734375
-69.82421875,-54.6875,-52.734375,-50.78125
-56.640625,-35.64453125,-56.15234375,-49.31640625
-45.41015625,-31.25,-51.7578125,-46.875
-46.38671875,-60.546875,-52.734375,-52.734375
-52.734375,-66.40625,-58.59375,-60.05859375
-62.5,-37.109375,-56.15234375,-64.94140625
-64.453125,-56.640625,-51.7578125,-70.3125
-50.29296875,-62.5,-52.24609375,-60.546875
-36.1328125,-49.8046875,-51.7578125,-53.7109375
-42.96875,-74.70703125,-49.31640625,-55.17578125
-38.0859375,-61.5234375,-51.26953125,-53.7109375
-31.73828125,-40.52734375,-57.12890625,-49.8046875
-31.25,-35.64453125,-54.19921875,-48.828125
-35.15625,-51.7578125,-51.7578125,-50.78125
-30.2734375,-79.1015625,-59.08203125,-54.6875
-40.52734375,-70.3125,-57.12890625,-57.6171875
-56.15234375,-38.57421875,-52.734375,-55.6640625
-30.76171875,-22.94921875,-56.15234375,-57.6171875
-21.484375,-56.15234375,-56.640625,-68.84765625
-32.71484375,-85.44921875,-55.6640625,-71.2890625
-29.296875,-74.70703125,-59.5703125,-75.68359375
-42.48046875,-49.8046875,-58.59375,-77.1484375
-46.38671875,-33.203125,-56.640625,-74.21875
-54.19921875,-34.66796875,-61.03515625,-76.171875
-59.5703125,-80.56640625,-59.08203125,-73.2421875
-45.8984375,-88.8671875,-49.8046875,-58.10546875
-41.50390625,-48.828125,-51.7578125,-58.10546875
-43.45703125,-34.1796875,-54.6875,-60.05859375
-56.15234375,-26.85546875,-57.12890625,-60.546875
-31.73828125,-23.92578125,-53.22265625,-64.453125
-39.0625,-65.91796875,-54.19921875,-56.15234375
-64.453125,-64.94140625,-53.7109375,-48.828125
-44.921875,-33.203125,-46.875,-40.52734375
-29.78515625,-41.9921875,-49.8046875,-40.52734375
-29.296875,-72.265625,-52.734375,-50.78125
-41.50390625,-80.078125,-51.7578125,-57.12890625
-42.48046875,-61.03515625,-55.17578125,-56.15234375
-36.62109375,-28.80859375,-56.15234375,-50.29296875
-26.3671875,-20.01953125,-53.22265625,-53.7109375
-23.92578125,-66.89453125,-55.6640625,-63.96484375
-37.109375,-82.03125,-59.08203125,-62.01171875
-41.9921875,-36.62109375,-58.59375,-47.36328125
-53.7109375,-30.76171875,-57.12890625,-40.52734375
-49.8046875,-49.31640625,-54.19921875,-44.43359375
-37.59765625,-56.15234375,-47.8515625,-44.43359375
-33.203125,-58.59375,-47.36328125,-41.9921875
-29.78515625,-57.6171875,-52.24609375,-45.8984375
-40.0390625,-34.66796875,-49.31640625,-46.38671875
-34.66796875,-31.73828125,-46.875,-45.41015625
-41.9921875,-61.03515625,-50.78125,-48.33984375
-45.41015625,-76.66015625,-54.19921875,-50.29296875
-51.26953125,-61.5234375,-53.7109375,-44.43359375
-59.08203125,-38.57421875,-52.734375,-43.9453125
-52.24609375,-23.4375,-48.828125,-45.41015625
-45.41015625,-43.9453125,-52.24609375,-48.828125
-44.921875,-83.0078125,-55.17578125,-51.26953125
-38.0859375,-76.66015625,-47.8515625,-46.38671875
-50.29296875,-43.45703125,-52.24609375,-53.22265625
-52.734375,-35.15625,-54.19921875,-58.10546875
-43.45703125,-59.08203125,-47.8515625,-51.26953125
-48.828125,-67.87109375,-51.26953125,-54.6875
-74.21875,-59.5703125,-55.6640625,-57.12890625
-69.82421875,-39.55078125,-49.8046875,-47.8515625
-31.73828125,-28.3203125,-46.38671875,-47.36328125
-46.38671875,-37.109375,-50.78125,-56.15234375
-60.05859375,-43.9453125,-51.26953125,-58.10546875
-43.45703125,-83.49609375,-51.26953125,-59.08203125
-52.734375,-62.98828125,-50.78125,-50.29296875
-47.8515625,-19.53125,-44.921875,-41.50390625
-33.69140625,-59.5703125,-44.43359375,-55.6640625
-35.15625,-83.984375,-45.41015625,-56.640625
-46.875,-69.3359375,-41.015625,-43.9453125
-43.45703125,-38.57421875,-46.38671875,-47.36328125
-34.1796875,-25.87890625,-50.29296875,-48.33984375
-47.8515625,-33.203125,-49.31640625,-48.828125
-36.1328125,-55.6640625,-49.31640625,-50.29296875
-52.734375,-67.87109375,-50.29296875,-49.8046875
-71.2890625,-40.52734375,-55.6640625,-50.78125
-57.12890625,-44.921875,-53.22265625,-51.26953125
-52.24609375,-58.10546875,-50.29296875,-55.17578125
-50.78125,-61.5234375,-53.7109375,-67.3828125
-44.43359375,-70.80078125,-59.08203125,-64.94140625
-46.38671875,-47.8515625,-60.546875,-59.08203125
-59.5703125,-15.13671875,-56.640625,-58.10546875
-49.31640625,-42.96875,-54.19921875,-62.98828125
-48.33984375,-76.171875,-57.12890625,-68.359375
-57.6171875,-76.66015625,-59.5703125,-63.96484375
-69.82421875,-63.96484375,-59.08203125,-64.94140625
-65.91796875,-38.57421875,-60.546875,-56.15234375
-55.6640625,-22.94921875,-61.5234375,-54.6875
-64.94140625,-76.171875,-62.98828125,-61.5234375
-66.40625,-107.91015625,-62.01171875,-60.546875
-69.82421875,-76.66015625,-60.546875,-61.03515625
-75.68359375,-40.52734375,-60.05859375,-65.91796875
-60.546875,-37.109375,-53.7109375,-60.546875
-40.52734375,-60.05859375,-51.26953125,-50.29296875
-55.17578125,-67.3828125,-51.26953125,-47.8515625
-70.80078125,-54.19921875,-52.734375,-52.734375
-68.359375,-35.15625,-56.15234375,-58.10546875
-60.05859375,-49.31640625,-52.24609375,-51.26953125
-48.33984375,-55.17578125,-51.26953125,-48.828125
-52.734375,-50.29296875,-52.734375,-51.7578125
-58.10546875,-79.1015625,-49.8046875,-44.43359375
-68.359375,-62.5,-52.24609375,-52.24609375
-51.7578125,-30.2734375,-54.19921875,-63.96484375
-54.6875,-56.15234375,-51.26953125,-69.82421875
-49.8046875,-70.80078125,-49.31640625,-76.66015625
-44.921875,-54.6875,-50.78125,-63.4765625
-56.15234375,-51.26953125,-52.24609375,-47.8515625
-64.453125,-38.0859375,-46.875,-48.33984375
-64.453125,-34.1796875,-42.96875,-54.6875
-57.12890625,-62.5,-45.8984375,-57.12890625
-63.96484375,-61.03515625,-44.921875,-49.31640625
-55.6640625,-4.39453125,-37.59765625,-36.1328125
-44.43359375,-11.71875,-36.62109375,-35.15625
-59.08203125,-70.80078125,-38.0859375,-39.0625
-65.4296875,-68.84765625,-39.55078125,-39.0625
-39.0625,-69.3359375,-42.48046875,-31.25
-20.99609375,-46.38671875,-40.52734375,-26.3671875
-43.9453125,-23.92578125,-34.1796875,-41.9921875
-63.96484375,-51.26953125,-34.66796875,-49.8046875
-49.8046875,-76.171875,-34.66796875,-48.828125
-74.21875,-81.0546875,-36.62109375,-53.22265625
-77.1484375,-55.6640625,-40.0390625,-36.62109375
-45.41015625,-35.64453125,-33.203125,-32.71484375
-56.640625,-33.203125,-31.25,-45.41015625
-48.828125,-79.1015625,-29.78515625,-38.57421875
-48.828125,-101.5625,-31.73828125,-36.1328125
-51.7578125,-65.4296875,-36.62109375,-31.25
-35.15625,-55.17578125,-35.15625,-18.5546875
-27.83203125,-57.6171875,-38.57421875,-16.6015625
-32.2265625,-68.84765625,-39.0625,-20.5078125
-37.59765625,-88.37890625,-38.0859375,-27.34375
-40.0390625,-81.0546875,-42.48046875,-25.87890625
-34.66796875,-41.9921875,-41.50390625,-27.34375
-26.85546875,-41.9921875,-38.0859375,-42.96875
-21.484375,-68.359375,-37.109375,-44.921875
-33.203125,-66.89453125,-37.109375,-42.96875
-54.6875,-81.54296875,-39.55078125,-55.17578125
-61.5234375,-67.87109375,-41.015625,-61.03515625
-63.96484375,-25.87890625,-34.66796875,-60.546875
-82.03125,-44.921875,-36.62109375,-68.84765625
-70.3125,-80.078125,-41.50390625,-70.80078125
-79.1015625,-79.58984375,-35.15625,-79.1015625
-97.16796875,-55.17578125,-33.203125,-76.171875
-71.77734375,-51.7578125,-30.2734375,-55.17578125
-71.2890625,-74.21875,-27.83203125,-59.08203125
-77.1484375,-97.65625,-24.90234375,-65.4296875
-70.80078125,-84.9609375,-19.53125,-54.19921875
-67.87109375,-47.36328125,-19.04296875,-39.0625
-50.29296875,-73.2421875,-19.04296875,-31.73828125
-30.76171875,-86.42578125,-10.25390625,-16.11328125
-19.04296875,-81.54296875,-7.8125,-9.27734375
-31.73828125,-97.65625,-16.11328125,-5.37109375
-26.85546875,-76.171875,-17.578125,13.671875
-2.9296875,-56.15234375,-20.01953125,15.625
0.0,-71.77734375,-20.99609375,2.44140625
-0.9765625,-90.8203125,-18.06640625,4.39453125
-11.71875,-91.30859375,-23.92578125,3.90625
-23.92578125,-86.42578125,-29.78515625,-6.34765625
-1.46484375,-48.828125,-27.83203125,-0.9765625
13.671875,-27.83203125,-26.85546875,-0.48828125
1.953125,-82.03125,-29.296875,-2.9296875
-9.27734375,-106.4453125,-32.2265625,0.48828125
-17.08984375,-77.1484375,-39.55078125,-2.44140625
-17.08984375,-65.4296875,-45.41015625,-10.25390625
-25.390625,-78.125,-43.9453125,-8.30078125
-17.08984375,-78.61328125,-39.55078125,-14.6484375
-11.71875,-91.30859375,-36.1328125,-17.08984375
-33.203125,-87.890625,-41.9921875,-9.27734375
-31.73828125,-46.875,-44.921875,-17.578125
-21.484375,-66.40625,-40.0390625,-25.390625
-23.92578125,-76.66015625,-38.57421875,-20.5078125
-19.53125,-58.59375,-40.52734375,-15.625
-11.71875,-70.80078125,-42.96875,-16.11328125
-24.90234375,-77.1484375,-45.8984375,-14.6484375
-32.2265625,-61.5234375,-41.015625,-15.13671875
-19.04296875,-72.75390625,-41.015625,-18.5546875
-23.92578125,-89.84375,-45.8984375,-25.87890625
-41.9921875,-74.21875,-44.43359375,-21.97265625
-34.1796875,-49.31640625,-45.41015625,-13.18359375
-20.99609375,-44.921875,-44.43359375,-12.20703125
-21.97265625,-56.640625,-46.875,-20.01953125
-21.484375,-78.125,-47.8515625,-27.34375
-24.4140625,-70.80078125,-44.43359375,-23.4375
-41.9921875,-11.23046875,-42.48046875,-18.5546875
-55.17578125,-30.76171875,-41.9921875,-18.06640625
-36.62109375,-65.4296875,-42.96875,-14.6484375
-47.8515625,-61.5234375,-44.43359375,-18.06640625
-67.3828125,-93.26171875,-47.36328125,-26.85546875
-64.453125,-54.6875,-45.8984375,-28.3203125
-45.8984375,-21.97265625,-41.50390625,-24.90234375
-37.59765625,-56.640625,-43.9453125,-34.66796875
-52.734375,-62.5,-50.78125,-41.015625
-58.59375,-65.4296875,-53.22265625,-35.64453125
-57.6171875,-50.29296875,-53.7109375,-37.59765625
-43.45703125,-21.97265625,-53.22265625,-27.34375
-32.71484375,-28.3203125,-50.29296875,-30.76171875
-41.50390625,-71.77734375,-47.36328125,-46.875
-48.828125,-86.9140625,-48.33984375,-40.52734375
-47.8515625,-52.734375,-55.6640625,-35.64453125
-46.875,-33.69140625,-57.6171875,-43.9453125
-43.45703125,-35.64453125,-48.33984375,-45.8984375
-39.55078125,-50.29296875,-47.36328125,-43.45703125
-47.36328125,-79.1015625,-52.24609375,-41.50390625
-50.78125,-57.12890625,-49.31640625,-45.41015625
-31.25,-18.06640625,-47.8515625,-40.52734375
-38.57421875,-41.9921875,-45.8984375,-30.2734375
-51.26953125,-55.6640625,-44.43359375,-36.1328125
-49.8046875,-44.43359375,-43.45703125,-37.109375
-53.22265625,-66.89453125,-41.50390625,-36.62109375
-47.36328125,-55.6640625,-37.59765625,-35.15625
-47.8515625,-42.48046875,-37.109375,-43.45703125
-65.91796875,-60.05859375,-42.48046875,-52.734375
-54.19921875,-75.68359375,-48.33984375,-41.015625
-52.734375,-60.546875,-49.8046875,-28.3203125
-59.5703125,-25.390625,-44.921875,-32.71484375
-37.59765625,-23.92578125,-38.57421875,-41.50390625
-39.0625,-50.78125,-44.921875,-52.734375
