TP9,AF7,AF8,TP10
-25.87890625,-134.27734375,-67.3828125,-7.8125
-11.71875,-45.41015625,-61.5234375,10.25390625
16.6015625,-13.18359375,-62.01171875,13.671875
20.99609375,-42.48046875,-64.453125,3.41796875
0.9765625,-111.81640625,-63.96484375,-6.34765625
-20.5078125,-103.515625,-63.96484375,-8.7890625
-19.04296875,-59.5703125,-63.96484375,-0.9765625
0.48828125,-34.1796875,-61.5234375,2.9296875
9.27734375,-37.109375,-56.640625,-3.41796875
0.0,-118.65234375,-60.546875,-15.13671875
-24.90234375,-136.71875,-63.96484375,-24.4140625
-32.2265625,-58.59375,-62.98828125,-17.08984375
-5.37109375,29.296875,-60.546875,-7.32421875
3.41796875,-3.90625,-54.19921875,-15.13671875
-13.671875,-107.421875,-54.19921875,-29.78515625
-29.296875,-131.34765625,-51.7578125,-28.80859375
-30.2734375,-52.734375,-46.875,-15.13671875
-14.6484375,21.97265625,-51.26953125,-9.27734375
-0.48828125,-16.11328125,-48.33984375,-13.18359375
-11.23046875,-110.83984375,-44.43359375,-25.87890625
-39.55078125,-147.94921875,-52.24609375,-33.203125
-53.22265625,-98.14453125,-55.17578125,-25.390625
-35.64453125,5.859375,-50.78125,-12.20703125
-13.18359375,21.484375,-40.0390625,-8.7890625
-17.578125,-84.9609375,-28.3203125,-15.13671875
-45.41015625,-122.55859375,-34.66796875,-22.4609375
-53.22265625,-82.51953125,-45.8984375,-20.01953125
-31.73828125,9.765625,-47.36328125,-12.6953125
-15.625,12.20703125,-43.45703125,-17.578125
-16.6015625,-42.96875,-47.36328125,-20.99609375
-28.80859375,-104.4921875,-48.828125,-23.92578125
-50.78125,-127.9296875,-48.828125,-26.85546875
-47.36328125,-13.18359375,-52.24609375,-24.4140625
-27.34375,10.25390625,-44.921875,-22.94921875
-31.25,-64.94140625,-39.0625,-30.2734375
-46.38671875,-99.12109375,-47.36328125,-39.0625
-56.640625,-80.078125,-57.12890625,-35.15625
-49.8046875,-0.48828125,-50.29296875,-29.78515625
-30.2734375,50.29296875,-36.1328125,-33.203125
-30.2734375,-31.73828125,-40.0390625,-45.8984375
-45.8984375,-118.1640625,-42.96875,-52.734375
-59.5703125,-77.1484375,-41.9921875,-50.29296875
-59.08203125,-23.92578125,-48.828125,-43.9453125
-33.69140625,1.953125,-41.50390625,-33.69140625
-20.5078125,-14.16015625,-32.2265625,-34.66796875
-33.203125,-108.88671875,-34.66796875,-41.015625
-55.6640625,-127.44140625,-37.59765625,-41.015625
-62.5,-39.55078125,-37.109375,-33.203125
-44.43359375,14.16015625,-33.69140625,-27.83203125
-34.66796875,-14.6484375,-32.2265625,-34.66796875
-39.0625,-84.47265625,-35.15625,-44.921875
-52.24609375,-113.76953125,-37.109375,-48.828125
-62.01171875,-46.875,-44.921875,-41.9921875
-43.45703125,39.0625,-44.921875,-37.59765625
-33.69140625,-12.20703125,-40.52734375,-46.38671875
-42.48046875,-118.1640625,-47.8515625,-53.7109375
-45.8984375,-122.55859375,-49.31640625,-45.8984375
-44.921875,-49.31640625,-43.9453125,-30.2734375
-23.92578125,30.76171875,-33.69140625,-12.20703125
-6.8359375,-7.32421875,-23.92578125,-19.04296875
-18.06640625,-78.61328125,-28.80859375,-37.109375
-37.59765625,-96.19140625,-38.57421875,-39.0625
-39.0625,-47.36328125,-42.96875,-34.1796875
-20.5078125,8.30078125,-38.57421875,-22.94921875
-11.71875,8.7890625,-36.62109375,-27.34375
-19.53125,-26.85546875,-35.64453125,-45.41015625
-39.55078125,-114.74609375,-35.64453125,-52.734375
-54.19921875,-98.6328125,-41.015625,-46.38671875
-38.0859375,22.94921875,-40.52734375,-32.2265625
-18.06640625,23.92578125,-43.45703125,-31.73828125
-21.484375,-52.734375,-47.36328125,-39.55078125
-41.50390625,-101.5625,-53.7109375,-45.8984375
-53.22265625,-88.8671875,-51.7578125,-37.59765625
-48.828125,-11.23046875,-43.45703125,-32.2265625
-35.64453125,13.671875,-40.52734375,-37.59765625
-39.55078125,-49.31640625,-36.1328125,-40.52734375
-50.29296875,-90.8203125,-30.2734375,-45.8984375
-61.5234375,-76.66015625,-32.71484375,-43.9453125
-54.6875,-41.50390625,-36.62109375,-32.2265625
-31.25,-8.30078125,-34.66796875,-28.80859375
-33.69140625,-43.45703125,-36.1328125,-36.1328125
-50.78125,-112.3046875,-33.203125,-38.57421875
-61.03515625,-98.14453125,-35.64453125,-33.69140625
-55.6640625,7.32421875,-40.0390625,-24.4140625
-33.69140625,1.46484375,-40.0390625,-26.85546875
-19.53125,-47.8515625,-38.57421875,-32.71484375
-33.69140625,-95.21484375,-43.45703125,-42.48046875
-61.5234375,-138.671875,-43.9453125,-51.26953125
-59.5703125,-22.94921875,-38.0859375,-40.52734375
-34.66796875,63.96484375,-34.1796875,-26.85546875
-28.80859375,-19.53125,-32.71484375,-36.1328125
-47.8515625,-114.2578125,-36.62109375,-51.7578125
-68.84765625,-124.0234375,-52.734375,-54.19921875
-55.6640625,-30.76171875,-54.19921875,-36.1328125
-36.62109375,34.66796875,-37.109375,-32.2265625
-54.6875,-15.625,-39.55078125,-59.08203125
-63.96484375,-83.984375,-47.8515625,-66.89453125
-67.3828125,-94.23828125,-41.9921875,-57.12890625
-76.171875,-47.36328125,-36.1328125,-50.78125
-62.5,-7.32421875,-37.59765625,-43.45703125
-48.33984375,0.0,-37.109375,-42.96875
-59.08203125,-51.7578125,-37.59765625,-54.6875
-76.171875,-115.234375,-39.55078125,-60.546875
-75.1953125,-69.3359375,-44.921875,-51.7578125
-51.7578125,14.6484375,-47.8515625,-39.55078125
-35.15625,20.5078125,-47.36328125,-38.0859375
-39.0625,-59.5703125,-45.41015625,-46.38671875
-57.6171875,-117.67578125,-46.875,-57.12890625
-67.87109375,-85.44921875,-47.8515625,-50.78125
-53.22265625,20.5078125,-45.41015625,-31.25
-32.2265625,44.43359375,-39.0625,-25.390625
-30.2734375,-59.5703125,-37.59765625,-34.66796875
-52.24609375,-97.65625,-48.828125,-47.8515625
-71.77734375,-59.5703125,-50.29296875,-56.640625
-58.59375,5.859375,-41.50390625,-48.33984375
-35.64453125,4.39453125,-36.62109375,-43.45703125
-39.55078125,-72.265625,-35.15625,-53.22265625
-62.98828125,-113.76953125,-42.96875,-61.5234375
-71.77734375,-83.49609375,-46.875,-55.17578125
-60.05859375,-9.27734375,-42.48046875,-41.015625
-38.0859375,24.90234375,-42.96875,-37.109375
-32.2265625,-32.71484375,-47.36328125,-48.33984375
-48.33984375,-105.46875,-50.78125,-57.12890625
-65.4296875,-103.02734375,-56.15234375,-53.22265625
-59.5703125,-21.484375,-55.6640625,-43.9453125
-33.203125,44.43359375,-45.41015625,-37.109375
-29.78515625,-27.34375,-52.24609375,-45.8984375
-41.50390625,-107.421875,-58.59375,-52.734375
-52.24609375,-108.3984375,-50.78125,-48.33984375
-51.26953125,-42.96875,-49.8046875,-40.0390625
-24.90234375,32.2265625,-41.015625,-26.3671875
-19.53125,-8.7890625,-41.015625,-32.71484375
-41.9921875,-86.9140625,-43.45703125,-50.78125
-66.40625,-100.09765625,-39.0625,-51.7578125
-63.4765625,-29.78515625,-37.109375,-40.52734375
-38.57421875,31.25,-34.66796875,-37.59765625
-33.69140625,-11.71875,-35.64453125,-46.38671875
-43.9453125,-68.84765625,-39.0625,-55.6640625
-62.98828125,-110.83984375,-43.9453125,-58.59375
-70.3125,-77.63671875,-46.875,-50.29296875
-50.29296875,20.99609375,-45.8984375,-39.55078125
-33.69140625,6.8359375,-41.015625,-40.0390625
-41.50390625,-69.82421875,-43.45703125,-48.828125
-68.359375,-100.09765625,-52.24609375,-58.59375
-78.61328125,-65.4296875,-50.78125,-54.6875
-53.22265625,10.7421875,-43.45703125,-42.96875
-33.69140625,12.6953125,-46.875,-44.921875
-34.1796875,-72.265625,-54.19921875,-59.08203125
-47.8515625,-95.21484375,-51.26953125,-61.03515625
-53.22265625,-34.66796875,-47.8515625,-47.36328125
-27.34375,15.625,-46.875,-30.2734375
-24.90234375,7.32421875,-45.41015625,-44.43359375
-48.33984375,-72.75390625,-40.0390625,-72.75390625
-64.94140625,-125.0,-55.6640625,-66.89453125
-74.70703125,-76.171875,-64.94140625,-51.7578125
-59.5703125,14.16015625,-41.015625,-44.921875
-41.50390625,24.4140625,-37.109375,-47.36328125
-48.828125,-51.7578125,-45.41015625,-60.546875
-62.98828125,-97.65625,-49.8046875,-66.89453125
-74.21875,-105.95703125,-51.7578125,-56.15234375
-58.59375,2.9296875,-42.96875,-41.015625
-38.0859375,61.5234375,-39.55078125,-37.59765625
-41.015625,-52.24609375,-45.41015625,-51.26953125
-56.640625,-130.859375,-52.24609375,-59.08203125
-70.3125,-97.65625,-51.7578125,-50.29296875
-60.546875,-11.71875,-41.9921875,-40.52734375
-38.0859375,18.5546875,-49.31640625,-33.203125
-30.2734375,-27.83203125,-52.24609375,-35.64453125
-41.50390625,-81.0546875,-50.78125,-46.875
-54.19921875,-95.21484375,-55.17578125,-46.875
-55.6640625,-31.73828125,-58.10546875,-39.0625
-33.69140625,9.765625,-61.03515625,-33.69140625
-23.92578125,-13.671875,-53.7109375,-36.62109375
-39.0625,-48.828125,-42.48046875,-48.33984375
-58.10546875,-98.14453125,-37.109375,-48.33984375
-59.08203125,-58.59375,-42.96875,-38.57421875
-34.66796875,0.9765625,-45.41015625,-30.76171875
-29.296875,-24.90234375,-46.875,-42.96875
-37.59765625,-77.1484375,-48.828125,-52.24609375
-47.8515625,-113.76953125,-41.9921875,-41.015625
-58.10546875,-58.10546875,-45.8984375,-36.62109375
-44.921875,12.6953125,-49.31640625,-32.71484375
-32.71484375,-5.37109375,-44.921875,-36.1328125
-43.9453125,-83.49609375,-38.0859375,-45.8984375
-59.5703125,-105.95703125,-39.55078125,-44.921875
-61.03515625,-20.5078125,-46.875,-35.64453125
-43.9453125,2.44140625,-42.96875,-29.296875
-32.2265625,-29.78515625,-44.43359375,-34.1796875
-41.50390625,-51.26953125,-46.38671875,-45.8984375
-62.98828125,-106.4453125,-48.828125,-51.26953125
-72.75390625,-83.984375,-50.29296875,-41.50390625
-53.7109375,14.16015625,-37.109375,-28.80859375
-30.76171875,11.23046875,-28.80859375,-30.2734375
-33.203125,-64.94140625,-32.2265625,-42.48046875
-50.29296875,-100.5859375,-33.203125,-41.9921875
-61.03515625,-76.171875,-37.59765625,-35.15625
-45.8984375,7.32421875,-39.0625,-30.2734375
-16.6015625,46.875,-37.59765625,-20.01953125
-4.8828125,-42.48046875,-42.96875,-17.578125
-28.3203125,-115.234375,-40.52734375,-32.71484375
-66.40625,-110.3515625,-45.41015625,-44.43359375
-59.5703125,-22.4609375,-42.48046875,-40.0390625
-22.94921875,25.87890625,-33.69140625,-28.3203125
-24.90234375,-37.59765625,-38.0859375,-38.57421875
-46.875,-108.88671875,-41.50390625,-54.19921875
-57.6171875,-87.40234375,-42.48046875,-52.734375
-56.15234375,-13.671875,-54.19921875,-47.8515625
-44.43359375,0.48828125,-54.6875,-49.8046875
-43.45703125,-46.875,-42.48046875,-62.98828125
-55.6640625,-77.1484375,-38.57421875,-71.2890625
-74.70703125,-112.3046875,-41.9921875,-67.87109375
-67.87109375,-56.15234375,-46.38671875,-52.24609375
-37.109375,10.7421875,-45.8984375,-41.50390625
-33.69140625,-21.97265625,-38.57421875,-42.96875
-44.921875,-85.44921875,-39.55078125,-48.828125
-59.5703125,-133.7890625,-44.43359375,-47.8515625
-57.6171875,-33.203125,-42.48046875,-35.15625
-30.76171875,42.96875,-38.0859375,-26.85546875
-30.2734375,-16.6015625,-36.62109375,-34.66796875
-53.22265625,-113.28125,-41.9921875,-50.78125
-70.3125,-104.4921875,-44.43359375,-51.7578125
-65.4296875,-12.20703125,-49.8046875,-41.50390625
-33.203125,-0.9765625,-52.24609375,-31.73828125
-16.11328125,-14.6484375,-52.24609375,-33.203125
-28.80859375,-78.61328125,-54.19921875,-49.8046875
-52.24609375,-120.1171875,-45.41015625,-60.05859375
-56.15234375,-44.921875,-41.9921875,-47.36328125
-36.1328125,8.7890625,-41.9921875,-37.109375
-21.484375,2.9296875,-37.59765625,-37.109375
-29.296875,-69.82421875,-33.69140625,-47.36328125
-52.734375,-119.62890625,-42.48046875,-54.6875
-64.94140625,-78.125,-52.734375,-45.8984375
-45.41015625,13.18359375,-46.38671875,-33.69140625
-22.4609375,47.36328125,-31.25,-32.2265625
-31.25,-61.5234375,-33.69140625,-46.38671875
-57.6171875,-154.296875,-43.9453125,-54.6875
-72.75390625,-99.12109375,-48.828125,-46.38671875
-58.10546875,7.8125,-50.78125,-30.76171875
-42.48046875,21.97265625,-47.8515625,-33.203125
-45.41015625,-30.2734375,-42.48046875,-47.8515625
-61.5234375,-92.28515625,-42.48046875,-57.12890625
-75.68359375,-106.4453125,-43.45703125,-53.22265625
-52.24609375,9.765625,-40.0390625,-34.1796875
-18.06640625,40.52734375,-37.59765625,-23.92578125
-21.484375,-42.48046875,-27.83203125,-37.109375
-49.31640625,-68.84765625,-34.66796875,-54.19921875
-65.91796875,-110.3515625,-52.24609375,-49.8046875
-47.8515625,-27.83203125,-44.43359375,-31.73828125
-19.04296875,65.4296875,-35.15625,-28.80859375
-18.5546875,-37.59765625,-39.0625,-38.0859375
-39.0625,-113.28125,-44.43359375,-45.8984375
-62.01171875,-100.09765625,-45.41015625,-48.828125
-55.6640625,-17.08984375,-41.015625,-44.43359375
-26.85546875,31.25,-33.203125,-33.69140625
-17.578125,-12.20703125,-29.296875,-36.1328125
-31.25,-115.72265625,-34.1796875,-45.8984375
-51.7578125,-100.5859375,-37.109375,-45.8984375
-53.22265625,18.5546875,-43.45703125,-33.203125
-38.0859375,6.34765625,-43.9453125,-28.80859375
-31.25,-33.203125,-38.0859375,-33.203125
-41.9921875,-108.3984375,-36.62109375,-43.45703125
-61.03515625,-129.39453125,-34.66796875,-43.9453125
-57.6171875,-21.97265625,-41.9921875,-29.78515625
-30.76171875,39.0625,-39.55078125,-20.99609375
-19.04296875,-10.25390625,-30.76171875,-22.94921875
-34.66796875,-74.70703125,-31.73828125,-39.0625
-57.12890625,-96.6796875,-34.66796875,-41.50390625
-55.6640625,-48.828125,-40.0390625,-35.15625
-33.203125,16.6015625,-45.8984375,-29.78515625
-12.6953125,36.62109375,-40.52734375,-30.76171875
-24.4140625,-64.453125,-42.48046875,-50.29296875
-48.828125,-133.30078125,-50.78125,-54.6875
-58.10546875,-64.453125,-54.19921875,-41.9921875
-34.1796875,36.62109375,-57.12890625,-31.73828125
-10.7421875,28.3203125,-52.24609375,-29.78515625
-15.625,-58.59375,-50.29296875,-38.0859375
-32.71484375,-105.95703125,-49.31640625,-43.9453125
-53.7109375,-57.6171875,-45.41015625,-42.48046875
-41.015625,52.734375,-42.48046875,-33.203125
-19.04296875,31.25,-39.55078125,-32.2265625
-26.3671875,-64.453125,-39.55078125,-43.45703125
-51.26953125,-78.125,-42.96875,-51.7578125
-64.94140625,-83.984375,-45.8984375,-49.31640625
-51.26953125,-19.04296875,-43.9453125,-35.64453125
-27.83203125,7.8125,-46.38671875,-30.76171875
-29.78515625,-71.2890625,-45.8984375,-42.96875
-46.875,-86.9140625,-45.41015625,-50.78125
-59.5703125,-85.9375,-49.31640625,-40.52734375
-48.33984375,-6.8359375,-47.36328125,-28.3203125
-25.87890625,31.25,-43.9453125,-20.5078125
-23.4375,-45.8984375,-38.0859375,-28.80859375
-37.59765625,-100.09765625,-35.64453125,-51.26953125
-55.17578125,-89.35546875,-31.73828125,-51.26953125
-48.33984375,0.0,-31.73828125,-35.15625
-21.97265625,31.73828125,-39.55078125,-31.25
-20.99609375,-42.48046875,-41.50390625,-39.55078125
-41.015625,-107.91015625,-43.9453125,-54.6875
-53.22265625,-101.07421875,-43.45703125,-55.6640625
-50.78125,-13.671875,-43.45703125,-43.9453125
-31.73828125,38.57421875,-47.36328125,-41.50390625
-27.34375,-19.04296875,-46.875,-49.8046875
-43.9453125,-81.0546875,-47.8515625,-64.94140625
-64.453125,-84.47265625,-49.8046875,-64.94140625
-67.87109375,-32.2265625,-59.08203125,-52.24609375
-34.1796875,30.2734375,-45.41015625,-43.45703125
-17.578125,33.203125,-26.3671875,-45.41015625
-33.69140625,-83.984375,-34.66796875,-55.17578125
-61.03515625,-117.1875,-42.96875,-59.5703125
-75.1953125,-37.59765625,-47.36328125,-54.6875
-52.734375,-2.9296875,-41.015625,-37.109375
-35.64453125,-9.27734375,-35.64453125,-36.62109375
-41.50390625,-65.91796875,-38.0859375,-50.29296875
-56.640625,-90.33203125,-35.15625,-46.875
-54.19921875,-26.3671875,-36.62109375,-34.1796875
-35.64453125,37.109375,-47.8515625,-28.3203125
-25.390625,8.7890625,-60.546875,-43.45703125
-38.57421875,-63.96484375,-52.24609375,-59.5703125
-54.19921875,-79.58984375,-36.62109375,-56.640625
-54.19921875,-51.7578125,-42.96875,-47.36328125
-45.41015625,3.90625,-41.50390625,-37.59765625
-27.83203125,14.16015625,-31.25,-39.55078125
-31.25,-68.84765625,-34.66796875,-57.12890625
-56.15234375,-99.12109375,-41.9921875,-69.82421875
-74.70703125,-64.453125,-41.9921875,-60.05859375
-57.6171875,-18.06640625,-38.0859375,-44.921875
-31.73828125,11.23046875,-36.1328125,-39.55078125
-36.1328125,-60.546875,-37.59765625,-51.26953125
-62.01171875,-115.234375,-42.48046875,-64.94140625
-79.58984375,-76.66015625,-38.0859375,-59.08203125
-69.3359375,30.76171875,-35.64453125,-47.8515625
-34.66796875,8.30078125,-35.64453125,-27.34375
-32.2265625,-72.75390625,-42.96875,-33.69140625
-75.1953125,-95.703125,-54.6875,-76.171875
-87.890625,-99.12109375,-59.08203125,-69.82421875
-62.5,-12.20703125,-60.05859375,-39.55078125
-39.55078125,35.15625,-54.19921875,-36.1328125
-36.1328125,-21.484375,-47.36328125,-52.24609375
-50.29296875,-86.42578125,-45.8984375,-72.265625
-66.89453125,-87.40234375,-46.38671875,-63.96484375
-67.3828125,-26.3671875,-46.38671875,-41.50390625
-38.0859375,34.66796875,-44.43359375,-30.2734375
-24.4140625,16.6015625,-43.45703125,-41.9921875
-44.43359375,-88.37890625,-49.31640625,-63.4765625
-70.3125,-129.39453125,-51.26953125,-63.96484375
-63.4765625,-27.34375,-47.36328125,-49.8046875
-30.76171875,33.203125,-40.0390625,-37.109375
-19.04296875,-8.7890625,-41.015625,-43.45703125
-39.55078125,-88.37890625,-49.8046875,-60.546875
-64.94140625,-112.3046875,-46.875,-57.12890625
-64.94140625,-44.43359375,-45.41015625,-43.45703125
-38.0859375,24.90234375,-52.734375,-35.64453125
-22.94921875,11.71875,-55.17578125,-37.109375
-35.15625,-80.56640625,-46.38671875,-47.36328125
-61.03515625,-100.09765625,-44.43359375,-59.08203125
-74.21875,-46.875,-48.828125,-53.7109375
-47.8515625,-9.765625,-45.41015625,-40.0390625
-29.78515625,-30.2734375,-44.43359375,-40.0390625
-49.31640625,-101.5625,-50.29296875,-55.17578125
-67.3828125,-110.3515625,-55.17578125,-58.10546875
-64.453125,-59.5703125,-55.6640625,-50.29296875
-51.26953125,1.953125,-55.6640625,-47.8515625
-34.66796875,4.39453125,-48.828125,-48.33984375
-36.1328125,-68.84765625,-47.36328125,-59.08203125
-61.03515625,-118.65234375,-43.45703125,-66.40625
-69.3359375,-74.70703125,-41.50390625,-52.734375
-41.9921875,34.1796875,-51.26953125,-29.78515625
-27.83203125,5.37109375,-58.59375,-37.59765625
-40.52734375,-68.84765625,-54.6875,-64.453125
-51.7578125,-109.375,-49.8046875,-65.4296875
-68.84765625,-115.72265625,-52.734375,-54.6875
-64.453125,-15.625,-56.640625,-46.875
-41.015625,-2.9296875,-52.734375,-46.38671875
-37.109375,-55.6640625,-47.8515625,-48.828125
-50.29296875,-89.35546875,-59.08203125,-55.6640625
-66.89453125,-110.3515625,-74.70703125,-57.6171875
-56.15234375,-33.203125,-65.4296875,-44.921875
-26.3671875,41.9921875,-56.640625,-34.66796875
-19.04296875,-7.32421875,-56.15234375,-44.921875
-35.15625,-118.65234375,-50.29296875,-49.8046875
-58.10546875,-118.65234375,-44.43359375,-48.33984375
-54.6875,-28.3203125,-43.45703125,-43.45703125
-27.83203125,-1.953125,-47.8515625,-35.15625
-22.4609375,-27.34375,-50.29296875,-39.55078125
-41.50390625,-73.2421875,-49.31640625,-58.59375
-62.5,-113.28125,-51.26953125,-59.5703125
-56.640625,-28.3203125,-55.6640625,-39.55078125
-31.25,17.578125,-48.828125,-35.15625
-24.90234375,-39.0625,-42.48046875,-39.55078125
-39.0625,-84.9609375,-46.38671875,-48.33984375
-59.08203125,-82.51953125,-46.38671875,-47.36328125
-61.03515625,-47.36328125,-42.48046875,-33.69140625
-32.2265625,3.41796875,-43.9453125,-28.3203125
-20.01953125,-1.46484375,-49.8046875,-35.15625
-31.25,-72.75390625,-46.875,-41.015625
-51.26953125,-102.05078125,-43.9453125,-42.96875
-61.5234375,-38.57421875,-50.78125,-40.52734375
-39.55078125,8.7890625,-48.33984375,-35.15625
-24.90234375,-9.765625,-44.43359375,-41.50390625
-34.1796875,-55.17578125,-45.8984375,-56.640625
-50.29296875,-114.74609375,-49.8046875,-56.15234375
-62.01171875,-66.40625,-58.59375,-47.8515625
-43.9453125,37.59765625,-56.640625,-39.0625
-23.4375,5.37109375,-49.31640625,-37.109375
-25.390625,-93.75,-49.31640625,-45.8984375
-40.0390625,-103.515625,-48.33984375,-50.29296875
-50.78125,-65.91796875,-46.875,-47.36328125
-34.1796875,4.8828125,-44.921875,-33.203125
-17.578125,19.53125,-41.50390625,-32.2265625
-26.3671875,-62.01171875,-41.50390625,-48.33984375
-51.26953125,-106.4453125,-47.8515625,-57.12890625
-69.82421875,-74.21875,-55.17578125,-52.734375
-54.19921875,-0.48828125,-56.15234375,-43.9453125
-30.76171875,23.92578125,-51.7578125,-38.0859375
-33.203125,-11.71875,-52.24609375,-44.921875
-49.31640625,-71.2890625,-53.22265625,-50.78125
-63.4765625,-114.74609375,-56.15234375,-42.48046875
-51.26953125,-16.6015625,-47.8515625,-34.1796875
-25.87890625,36.1328125,-30.76171875,-34.1796875
-27.34375,-37.109375,-35.15625,-43.45703125
-47.36328125,-95.703125,-45.8984375,-56.15234375
-62.98828125,-85.9375,-50.78125,-50.78125
-57.12890625,0.48828125,-53.22265625,-39.55078125
-32.2265625,30.76171875,-50.78125,-33.203125
-28.80859375,-30.76171875,-48.33984375,-45.41015625
-50.29296875,-110.3515625,-50.78125,-63.96484375
-69.82421875,-95.21484375,-59.08203125,-64.453125
-62.98828125,-33.69140625,-62.5,-53.22265625
-30.76171875,6.8359375,-55.17578125,-40.0390625
-17.578125,-10.7421875,-58.10546875,-44.921875
-36.62109375,-102.5390625,-66.89453125,-62.01171875
-60.05859375,-113.76953125,-58.10546875,-59.08203125
-62.98828125,-30.2734375,-55.17578125,-43.9453125
-39.0625,23.92578125,-58.59375,-35.64453125
-29.296875,-14.16015625,-45.41015625,-47.36328125
-41.9921875,-85.9375,-38.0859375,-62.01171875
-58.59375,-114.74609375,-45.41015625,-60.05859375
-63.96484375,-42.48046875,-49.8046875,-54.6875
-41.015625,43.9453125,-45.41015625,-50.29296875
-29.78515625,0.48828125,-50.29296875,-51.7578125
-42.96875,-97.16796875,-55.17578125,-64.94140625
-55.17578125,-109.86328125,-47.8515625,-68.84765625
-57.12890625,-57.12890625,-47.8515625,-53.22265625
-35.64453125,37.59765625,-48.33984375,-38.57421875
-17.578125,47.36328125,-50.78125,-34.1796875
-26.3671875,-95.21484375,-54.6875,-45.8984375
-47.8515625,-134.27734375,-54.19921875,-52.734375
-58.10546875,-71.2890625,-51.26953125,-44.43359375
-44.43359375,4.39453125,-53.22265625,-39.55078125
-28.3203125,20.99609375,-52.734375,-46.875
-33.69140625,-41.015625,-51.7578125,-59.5703125
-53.22265625,-104.4921875,-62.01171875,-65.91796875
-68.359375,-92.7734375,-64.94140625,-59.08203125
-63.4765625,11.23046875,-53.22265625,-46.38671875
-38.0859375,37.59765625,-40.52734375,-36.1328125
-37.109375,-50.78125,-44.921875,-42.96875
-58.10546875,-112.3046875,-50.29296875,-55.6640625
-66.40625,-83.0078125,-47.36328125,-50.78125
-55.17578125,14.6484375,-50.78125,-34.1796875
-38.57421875,39.55078125,-56.15234375,-35.15625
-38.0859375,-62.5,-44.43359375,-51.7578125
-53.22265625,-101.07421875,-39.0625,-57.12890625
-63.96484375,-53.7109375,-48.828125,-48.828125
-52.24609375,-6.34765625,-46.875,-39.0625
-32.2265625,5.859375,-44.921875,-46.38671875
-27.83203125,-35.64453125,-45.8984375,-57.6171875
-44.921875,-86.42578125,-48.33984375,-62.5
-70.80078125,-88.37890625,-50.78125,-65.91796875
-72.75390625,-17.578125,-49.31640625,-64.94140625
-54.19921875,28.3203125,-44.43359375,-62.01171875
-57.12890625,-0.9765625,-42.96875,-74.21875
-78.125,-70.80078125,-42.48046875,-88.8671875
-107.421875,-89.84375,-47.8515625,-94.7265625
-131.8359375,0.48828125,-53.7109375,-108.3984375
-122.0703125,78.125,-48.33984375,-121.58203125
-125.48828125,21.484375,-47.36328125,-144.53125
-152.34375,-75.68359375,-48.828125,-166.015625
-179.19921875,-93.26171875,-46.875,-170.8984375
-189.453125,-8.7890625,-46.38671875,-167.96875
-163.57421875,61.5234375,-41.015625,-162.109375
-153.80859375,37.109375,-44.921875,-171.38671875
-173.828125,-12.20703125,-46.875,-192.87109375
-191.40625,-52.734375,-43.9453125,-195.3125
-194.82421875,-10.25390625,-49.8046875,-181.640625
-182.12890625,63.4765625,-47.8515625,-182.12890625
-173.828125,49.31640625,-49.31640625,-189.453125
-180.17578125,-8.30078125,-50.29296875,-201.66015625
-197.265625,-70.3125,-48.828125,-206.0546875
-195.3125,-9.27734375,-54.6875,-184.5703125
-169.43359375,69.82421875,-50.78125,-165.0390625
-155.76171875,23.4375,-33.203125,-161.62109375
-157.2265625,-32.71484375,-29.78515625,-169.43359375
-173.828125,-66.40625,-37.59765625,-178.22265625
-178.22265625,-41.015625,-36.62109375,-165.52734375
-158.69140625,39.55078125,-35.15625,-151.85546875
-132.32421875,68.84765625,-34.66796875,-144.53125
-130.859375,-22.4609375,-37.109375,-152.34375
-151.85546875,-70.80078125,-37.59765625,-157.71484375
-160.15625,-27.34375,-43.45703125,-145.5078125
-144.53125,20.99609375,-51.7578125,-132.8125
-119.62890625,29.78515625,-46.38671875,-127.9296875
-118.65234375,-38.57421875,-41.015625,-135.7421875
-132.8125,-78.61328125,-50.78125,-139.16015625
-136.71875,-61.5234375,-57.12890625,-130.37109375
-124.0234375,21.484375,-60.05859375,-115.72265625
-92.28515625,46.875,-51.26953125,-95.703125
-90.8203125,-13.671875,-39.0625,-99.12109375
-116.2109375,-88.37890625,-41.9921875,-119.140625
-127.44140625,-84.47265625,-44.921875,-117.1875
-112.3046875,11.23046875,-44.43359375,-103.02734375
-83.49609375,78.125,-38.0859375,-95.703125
-71.2890625,-2.44140625,-41.9921875,-98.6328125
-79.1015625,-96.19140625,-49.8046875,-92.7734375
-91.796875,-81.54296875,-41.50390625,-84.47265625
-88.37890625,0.0,-37.59765625,-85.9375
-64.453125,47.8515625,-42.96875,-80.56640625
-57.6171875,20.99609375,-47.8515625,-86.42578125
-70.3125,-46.38671875,-51.7578125,-102.05078125
-74.70703125,-61.5234375,-58.59375,-91.796875
-67.3828125,12.6953125,-62.5,-71.2890625
-49.31640625,26.85546875,-51.7578125,-62.01171875
-49.31640625,12.6953125,-49.8046875,-77.63671875
-65.4296875,-29.296875,-51.26953125,-94.23828125
-77.1484375,-98.6328125,-52.24609375,-85.9375
-87.890625,-50.29296875,-54.6875,-73.73046875
-65.4296875,22.94921875,-51.26953125,-63.96484375
-49.31640625,2.44140625,-51.7578125,-69.3359375
-65.4296875,-48.33984375,-50.78125,-86.9140625
-85.44921875,-86.42578125,-52.734375,-87.890625
-85.44921875,-51.7578125,-55.17578125,-72.265625
-60.546875,31.25,-47.36328125,-56.640625
-39.55078125,28.3203125,-41.50390625,-51.7578125
-44.921875,-51.26953125,-49.31640625,-66.40625
-63.4765625,-100.5859375,-59.08203125,-70.80078125
-61.03515625,-23.4375,-61.5234375,-50.78125
-39.0625,59.5703125,-56.640625,-39.0625
-22.94921875,3.90625,-53.7109375,-41.015625
-34.1796875,-66.40625,-55.17578125,-58.10546875
-62.01171875,-95.703125,-63.4765625,-71.77734375
-64.94140625,-66.89453125,-58.10546875,-54.19921875
-44.43359375,20.5078125,-47.8515625,-40.52734375
-50.29296875,28.80859375,-54.6875,-71.2890625
-61.03515625,-51.7578125,-51.26953125,-83.984375
-70.80078125,-101.07421875,-54.19921875,-82.03125
-88.37890625,-70.80078125,-65.91796875,-86.9140625
-73.73046875,16.6015625,-63.96484375,-68.359375
-41.50390625,60.546875,-54.6875,-57.6171875
-55.6640625,-72.265625,-59.5703125,-75.1953125
-88.8671875,-142.578125,-65.91796875,-86.42578125
-93.26171875,-75.68359375,-60.05859375,-73.73046875
-74.21875,-25.390625,-60.546875,-59.08203125
-46.875,4.8828125,-64.453125,-50.29296875
-45.41015625,-30.76171875,-60.546875,-59.5703125
-68.84765625,-98.14453125,-63.96484375,-76.66015625
-84.47265625,-96.6796875,-68.84765625,-71.2890625
-72.265625,-6.34765625,-66.89453125,-58.59375
-50.78125,26.85546875,-67.3828125,-61.5234375
-42.96875,-9.27734375,-65.91796875,-64.94140625
-57.6171875,-50.78125,-60.05859375,-74.70703125
-75.68359375,-114.2578125,-57.6171875,-71.77734375
-72.75390625,-43.45703125,-62.5,-58.59375
-52.24609375,35.15625,-56.15234375,-54.19921875
-48.33984375,-12.20703125,-50.29296875,-59.5703125
-64.94140625,-66.40625,-56.15234375,-79.58984375
-75.1953125,-104.4921875,-64.453125,-78.61328125
-56.640625,-68.84765625,-53.22265625,-41.015625
-40.0390625,5.859375,-44.921875,-29.78515625
-39.0625,5.37109375,-44.921875,-49.31640625
-43.45703125,-72.75390625,-46.38671875,-63.96484375
-56.640625,-94.7265625,-52.24609375,-60.05859375
-60.546875,-15.625,-52.24609375,-41.9921875
-52.734375,1.46484375,-58.59375,-42.48046875
-44.43359375,-29.78515625,-59.08203125,-45.8984375
-53.22265625,-83.0078125,-54.6875,-49.8046875
-78.125,-100.09765625,-57.6171875,-60.05859375
-82.51953125,-55.6640625,-58.10546875,-54.19921875
-52.24609375,11.71875,-54.19921875,-33.203125
-25.87890625,15.13671875,-54.19921875,-26.3671875
-29.78515625,-67.3828125,-45.8984375,-32.71484375
-52.24609375,-89.84375,-43.45703125,-38.0859375
-71.2890625,-74.21875,-54.19921875,-44.921875
-56.640625,-6.8359375,-54.6875,-41.50390625
-40.52734375,40.0390625,-44.921875,-44.921875
-54.19921875,-55.6640625,-44.921875,-66.40625
-78.61328125,-115.234375,-53.22265625,-80.078125
-88.37890625,-92.7734375,-57.12890625,-72.265625
-61.03515625,-8.7890625,-56.640625,-46.875
-37.109375,12.20703125,-54.19921875,-49.8046875
-46.38671875,-59.08203125,-53.22265625,-67.3828125
-64.94140625,-103.02734375,-62.5,-70.3125
-68.359375,-89.35546875,-66.40625,-53.22265625
-44.921875,6.34765625,-63.4765625,-34.66796875
-19.04296875,29.296875,-53.22265625,-25.87890625
-22.4609375,-44.43359375,-41.9921875,-31.73828125
-38.0859375,-73.2421875,-45.41015625,-47.36328125
-53.7109375,-80.56640625,-51.7578125,-51.7578125
-56.640625,-49.8046875,-47.36328125,-48.33984375
-39.55078125,-13.671875,-40.0390625,-38.57421875
-39.55078125,-21.484375,-34.66796875,-50.78125
-56.15234375,-84.9609375,-31.73828125,-68.84765625
-83.0078125,-114.74609375,-36.62109375,-74.70703125
-83.984375,-24.4140625,-46.38671875,-62.98828125
-48.33984375,14.6484375,-45.8984375,-37.59765625
-42.96875,-27.83203125,-35.15625,-41.015625
-75.1953125,-103.515625,-36.62109375,-64.453125
-85.9375,-120.60546875,-41.9921875,-58.59375
-74.70703125,-11.71875,-42.96875,-49.31640625
-52.24609375,10.25390625,-36.1328125,-46.38671875
-35.15625,-19.04296875,-34.1796875,-46.875
-35.15625,-65.91796875,-41.9921875,-50.29296875
-48.828125,-133.7890625,-49.31640625,-48.828125
-51.26953125,-60.546875,-42.96875,-37.59765625
-42.48046875,20.5078125,-45.41015625,-48.33984375
-26.3671875,15.625,-50.78125,-51.26953125
-32.2265625,-73.73046875,-37.59765625,-41.9921875
-68.84765625,-112.3046875,-38.0859375,-54.19921875
-78.61328125,-54.6875,-40.52734375,-55.6640625
-53.7109375,9.765625,-31.25,-44.921875
-32.2265625,54.6875,-26.3671875,-43.45703125
-42.96875,-75.68359375,-21.484375,-54.19921875
-60.05859375,-167.48046875,-29.296875,-55.17578125
-73.73046875,-82.03125,-34.66796875,-51.26953125
-60.546875,8.30078125,-32.2265625,-42.96875
-21.484375,31.25,-25.87890625,-24.90234375
-20.01953125,-43.9453125,-22.4609375,-23.92578125
-51.26953125,-138.18359375,-24.90234375,-30.76171875
-73.2421875,-113.28125,-25.87890625,-29.296875
-53.7109375,-0.48828125,-31.25,-18.5546875
-21.97265625,18.06640625,-34.66796875,-18.06640625
-26.3671875,-40.52734375,-35.15625,-30.2734375
-41.015625,-70.80078125,-35.64453125,-34.66796875
-46.38671875,-100.09765625,-34.66796875,-26.85546875
-36.62109375,-34.1796875,-36.1328125,-17.578125
-2.44140625,20.01953125,-26.85546875,-9.765625
0.9765625,-38.57421875,-20.99609375,-20.99609375
-34.1796875,-116.69921875,-21.484375,-41.50390625
-59.5703125,-122.55859375,-21.484375,-39.55078125
-37.109375,-44.921875,-15.13671875,-4.8828125
1.46484375,26.85546875,-13.18359375,12.6953125
-0.48828125,-28.80859375,-18.5546875,2.44140625
-27.34375,-159.66796875,-19.04296875,-14.6484375
-46.875,-145.99609375,-18.5546875,-20.5078125
-32.2265625,-17.578125,-16.6015625,-1.953125
3.41796875,-5.859375,-19.53125,11.23046875
10.7421875,-53.7109375,-21.484375,4.8828125
1.46484375,-101.07421875,-22.4609375,0.0
-10.7421875,-120.1171875,-29.78515625,5.859375
-24.90234375,-36.1328125,-23.4375,6.34765625
-11.23046875,3.41796875,-11.23046875,6.8359375
5.37109375,-22.4609375,-17.578125,7.8125
-2.9296875,-103.515625,-16.6015625,-0.48828125
-24.4140625,-148.92578125,-12.6953125,-3.41796875
-33.69140625,-69.82421875,-16.6015625,0.9765625
-12.20703125,13.18359375,-14.16015625,2.44140625
4.39453125,10.7421875,-14.6484375,4.39453125
-9.27734375,-98.14453125,-18.06640625,-2.9296875
-28.3203125,-178.22265625,-23.92578125,-3.90625
-26.85546875,-89.84375,-26.85546875,8.7890625
-6.34765625,-0.48828125,-24.90234375,10.25390625
7.32421875,-15.625,-34.1796875,3.90625
-8.30078125,-88.37890625,-36.1328125,-4.8828125
-43.9453125,-128.41796875,-34.66796875,-16.6015625
-41.015625,-85.44921875,-37.59765625,4.39453125
-8.30078125,7.8125,-37.59765625,13.18359375
-3.41796875,1.46484375,-32.2265625,-3.90625
-17.578125,-71.77734375,-34.66796875,-20.01953125
-31.73828125,-76.66015625,-39.55078125,-17.578125
-50.78125,-102.05078125,-33.203125,-12.6953125
-49.8046875,-31.73828125,-32.71484375,-25.390625
-9.27734375,22.94921875,-33.69140625,-14.16015625
-3.41796875,-82.51953125,-33.69140625,-21.484375
-34.66796875,-116.69921875,-32.71484375,-41.015625
-46.38671875,-76.66015625,-30.2734375,-35.15625
-36.1328125,-1.46484375,-29.296875,-28.3203125
-24.90234375,32.71484375,-32.71484375,-35.64453125
-28.3203125,-37.109375,-35.64453125,-45.41015625
-51.26953125,-111.81640625,-33.69140625,-54.6875
-64.453125,-94.7265625,-30.76171875,-52.734375
-44.43359375,28.3203125,-33.69140625,-39.55078125
-25.390625,22.94921875,-31.73828125,-37.109375
-28.80859375,-54.6875,-28.80859375,-44.43359375
-54.19921875,-100.5859375,-31.25,-56.640625
-72.75390625,-114.74609375,-32.71484375,-45.41015625
-58.59375,2.44140625,-34.66796875,-26.85546875
-33.203125,42.96875,-33.203125,-30.76171875
-34.1796875,-49.8046875,-34.1796875,-40.52734375
-71.2890625,-108.3984375,-37.109375,-60.546875
-91.30859375,-90.8203125,-36.62109375,-65.4296875
-73.73046875,-6.8359375,-40.0390625,-52.734375
-43.9453125,30.2734375,-49.8046875,-59.08203125
-36.62109375,32.71484375,-59.5703125,-62.01171875
-60.546875,-71.2890625,-51.7578125,-67.3828125
-87.40234375,-142.578125,-41.9921875,-75.68359375
-84.9609375,-48.33984375,-37.59765625,-73.2421875
-43.9453125,23.4375,-30.76171875,-52.24609375
-29.78515625,-4.8828125,-28.80859375,-42.96875
-64.453125,-103.02734375,-28.3203125,-63.4765625
-74.70703125,-131.34765625,-29.296875,-56.640625
-69.82421875,-44.43359375,-37.59765625,-41.9921875
-55.6640625,23.4375,-35.15625,-46.38671875
-29.78515625,-11.23046875,-28.3203125,-49.8046875
-46.38671875,-77.63671875,-34.1796875,-58.59375
-67.3828125,-77.63671875,-45.8984375,-61.5234375
-66.40625,-42.96875,-48.828125,-51.7578125
-54.19921875,13.18359375,-46.38671875,-57.12890625
-39.55078125,26.3671875,-46.875,-59.08203125
-37.109375,-33.69140625,-45.41015625,-51.7578125
-60.546875,-77.1484375,-51.26953125,-64.453125
-76.66015625,-54.6875,-55.6640625,-60.546875
-58.10546875,50.78125,-55.6640625,-48.33984375
-36.1328125,42.48046875,-47.36328125,-61.5234375
-43.45703125,-56.640625,-37.59765625,-72.265625
-69.3359375,-102.5390625,-39.55078125,-78.125
-80.078125,-73.2421875,-39.55078125,-67.3828125
-52.734375,56.640625,-38.0859375,-50.29296875
-28.80859375,46.38671875,-41.50390625,-53.22265625
-41.015625,-97.16796875,-42.48046875,-69.82421875
-62.98828125,-118.65234375,-45.8984375,-71.2890625
-73.73046875,-70.80078125,-52.24609375,-61.03515625
-61.5234375,12.6953125,-50.29296875,-56.640625
-35.64453125,36.1328125,-49.31640625,-51.26953125
-39.55078125,-21.484375,-57.12890625,-54.6875
-78.125,-76.66015625,-63.96484375,-70.80078125
-89.35546875,-76.171875,-70.80078125,-60.05859375
-61.5234375,-8.30078125,-64.453125,-37.59765625
-54.6875,28.3203125,-64.453125,-52.24609375
-45.41015625,13.671875,-72.75390625,-62.01171875
-59.08203125,-112.3046875,-58.59375,-66.89453125
-82.03125,-121.58203125,-60.546875,-73.2421875
-50.78125,-5.37109375,-65.91796875,-48.33984375
-23.92578125,-11.23046875,-49.8046875,-34.1796875
-18.5546875,-27.83203125,-41.9921875,-38.57421875
-38.57421875,-85.44921875,-40.52734375,-46.38671875
-63.96484375,-120.60546875,-44.43359375,-50.29296875
-42.96875,-50.29296875,-46.875,-27.34375
3.90625,17.578125,-42.48046875,-2.9296875
11.71875,-8.30078125,-44.43359375,-19.04296875
-17.08984375,-98.6328125,-52.24609375,-41.015625
-31.73828125,-106.4453125,-50.29296875,-28.3203125
-30.76171875,-57.12890625,-49.31640625,-11.71875
-14.16015625,-1.46484375,-59.08203125,-19.04296875
-11.23046875,-16.6015625,-58.10546875,-34.66796875
-20.5078125,-89.35546875,-56.640625,-38.57421875
-32.2265625,-119.62890625,-54.6875,-36.62109375
-61.5234375,-71.2890625,-40.0390625,-42.48046875
-48.828125,-4.8828125,-41.9921875,-39.0625
-18.5546875,-0.48828125,-40.0390625,-30.76171875
-40.0390625,-100.09765625,-29.296875,-47.36328125
-70.80078125,-147.94921875,-41.015625,-62.5
-57.6171875,-83.49609375,-48.828125,-38.57421875
-29.78515625,22.4609375,-41.9921875,-27.34375
-19.04296875,0.0,-36.62109375,-36.1328125
-24.4140625,-110.83984375,-36.62109375,-29.296875
-45.41015625,-147.94921875,-37.109375,-31.25
-59.08203125,-108.88671875,-32.71484375,-29.296875
-17.578125,-10.25390625,-24.90234375,-10.7421875
7.32421875,27.83203125,-28.3203125,-21.97265625
-23.4375,-64.94140625,-37.59765625,-50.29296875
-26.3671875,-117.1875,-42.48046875,-33.69140625
-38.0859375,-88.37890625,-44.921875,-16.11328125
-36.1328125,-39.0625,-50.78125,-26.3671875
-6.8359375,21.97265625,-51.26953125,-25.390625
-8.30078125,-31.25,-46.875,-30.2734375
-41.9921875,-150.87890625,-53.22265625,-49.8046875
-78.125,-145.01953125,-54.6875,-47.8515625
-60.05859375,-12.6953125,-54.6875,-37.109375
-22.4609375,24.4140625,-55.6640625,-40.0390625
-26.85546875,-50.29296875,-55.6640625,-55.6640625
-63.4765625,-134.27734375,-56.15234375,-76.171875
-78.61328125,-141.11328125,-55.6640625,-65.91796875
-69.82421875,-32.71484375,-56.640625,-56.640625
-40.52734375,18.5546875,-51.26953125,-57.6171875
-30.2734375,-36.1328125,-51.26953125,-62.01171875
-54.19921875,-99.609375,-54.19921875,-66.40625
-69.3359375,-86.42578125,-57.12890625,-51.26953125
-58.59375,-13.671875,-61.5234375,-36.62109375
-25.87890625,-2.44140625,-52.734375,-32.71484375
-7.32421875,-42.48046875,-48.828125,-35.64453125
-20.99609375,-105.46875,-54.19921875,-40.52734375
-49.31640625,-119.62890625,-57.12890625,-53.22265625
-48.828125,-40.52734375,-56.15234375,-56.640625
-34.1796875,31.73828125,-55.6640625,-54.6875
-35.64453125,6.34765625,-58.10546875,-65.91796875
-54.19921875,-77.63671875,-59.08203125,-70.3125
-80.56640625,-100.09765625,-61.03515625,-70.3125
-92.7734375,-12.20703125,-60.546875,-66.89453125
-51.7578125,83.0078125,-55.6640625,-55.17578125
-23.4375,30.2734375,-50.29296875,-56.15234375
-57.12890625,-69.82421875,-51.7578125,-73.2421875
-91.796875,-89.84375,-59.08203125,-76.171875
-92.7734375,-67.87109375,-54.6875,-62.01171875
-70.80078125,34.1796875,-47.8515625,-66.89453125
-36.1328125,54.6875,-44.921875,-67.87109375
-37.59765625,-58.10546875,-45.41015625,-69.3359375
-81.0546875,-95.703125,-50.78125,-80.56640625
-92.28515625,-44.921875,-54.19921875,-65.91796875
-63.4765625,34.66796875,-57.12890625,-57.6171875
-46.875,53.7109375,-51.26953125,-62.01171875
-45.41015625,-21.97265625,-46.875,-63.4765625
-63.4765625,-104.00390625,-53.7109375,-69.82421875
-73.2421875,-78.61328125,-60.05859375,-60.546875
-28.3203125,20.99609375,-62.01171875,-41.9921875
20.5078125,41.9921875,-53.22265625,-37.109375
14.16015625,-12.6953125,-50.29296875,-49.31640625
-22.4609375,-79.1015625,-51.7578125,-53.7109375
-43.9453125,-99.609375,-44.921875,-51.7578125
-25.390625,14.6484375,-45.41015625,-51.26953125
0.0,55.17578125,-48.33984375,-22.94921875
-9.27734375,-39.0625,-48.828125,-15.625
-37.59765625,-106.4453125,-61.5234375,-34.66796875
-59.08203125,-66.89453125,-63.96484375,-20.5078125
-52.24609375,9.765625,-54.19921875,0.48828125
-18.06640625,17.08984375,-54.19921875,0.0
-10.7421875,-21.97265625,-53.22265625,-16.11328125
-15.625,-87.890625,-47.8515625,-15.13671875
-32.71484375,-100.5859375,-54.19921875,-13.671875
-23.4375,-8.30078125,-59.5703125,-12.20703125
19.04296875,41.9921875,-57.6171875,2.44140625
24.4140625,2.44140625,-51.26953125,1.46484375
-7.32421875,-97.16796875,-51.26953125,-10.7421875
-41.50390625,-149.4140625,-51.26953125,-13.18359375
-35.15625,-38.0859375,-47.36328125,-9.27734375
7.8125,66.40625,-43.45703125,-2.44140625
25.390625,-5.37109375,-41.9921875,0.0
-6.34765625,-120.60546875,-47.36328125,-8.7890625
-33.69140625,-125.9765625,-51.7578125,-10.25390625
-32.2265625,-54.19921875,-57.6171875,-3.90625
2.9296875,23.92578125,-60.546875,3.90625
24.4140625,-0.48828125,-44.921875,5.37109375
0.9765625,-105.46875,-30.76171875,-8.7890625
-27.83203125,-133.7890625,-38.57421875,-13.671875
-32.71484375,-67.3828125,-43.45703125,-0.9765625
4.8828125,7.32421875,-40.52734375,3.90625
25.390625,5.859375,-44.43359375,-1.46484375
0.0,-50.78125,-48.33984375,-10.7421875
-30.76171875,-99.609375,-52.24609375,-15.13671875
-33.69140625,-116.69921875,-51.26953125,-2.44140625
-1.953125,-38.0859375,-45.8984375,14.16015625
22.94921875,0.0,-43.9453125,18.06640625
14.6484375,-78.61328125,-44.921875,13.18359375
-11.23046875,-142.08984375,-48.828125,12.20703125
-14.16015625,-122.0703125,-56.640625,28.3203125
19.53125,-36.62109375,-59.5703125,42.48046875
48.33984375,-2.9296875,-44.921875,40.52734375
40.52734375,-77.63671875,-29.78515625,27.34375
20.99609375,-140.13671875,-29.296875,20.01953125
7.32421875,-98.6328125,-39.55078125,20.99609375
17.08984375,-38.0859375,-51.7578125,23.4375
41.50390625,-19.04296875,-48.33984375,23.4375
42.48046875,-57.6171875,-40.52734375,11.23046875
23.92578125,-147.94921875,-40.52734375,0.0
6.34765625,-133.30078125,-41.015625,10.25390625
14.16015625,-22.4609375,-41.9921875,26.85546875
38.0859375,21.484375,-40.52734375,32.2265625
40.52734375,-35.64453125,-39.0625,30.2734375
2.9296875,-128.41796875,-45.41015625,24.4140625
-37.109375,-150.87890625,-56.15234375,23.92578125
-19.04296875,-9.27734375,-55.17578125,38.0859375
24.90234375,52.734375,-36.1328125,43.45703125
22.4609375,-66.40625,-27.83203125,28.80859375
-6.34765625,-157.71484375,-32.71484375,15.625
-27.34375,-148.4375,-37.109375,16.6015625
-13.18359375,-39.55078125,-40.52734375,28.3203125
26.85546875,10.25390625,-42.96875,36.1328125
43.9453125,-10.25390625,-36.1328125,32.71484375
19.53125,-101.5625,-33.203125,20.5078125
-7.32421875,-145.01953125,-46.875,9.27734375
-3.41796875,-46.875,-53.7109375,5.37109375
16.6015625,9.27734375,-51.7578125,7.32421875
24.90234375,-3.41796875,-54.19921875,1.46484375
6.8359375,-64.453125,-52.24609375,-9.765625
-14.6484375,-139.16015625,-50.78125,-10.25390625
-19.04296875,-83.0078125,-41.9921875,8.30078125
9.27734375,12.20703125,-32.2265625,25.390625
27.83203125,12.20703125,-34.1796875,24.90234375
6.8359375,-80.078125,-37.109375,12.20703125
-20.01953125,-129.8828125,-42.48046875,1.46484375
-23.92578125,-80.56640625,-42.48046875,8.30078125
0.48828125,20.5078125,-37.109375,15.13671875
20.01953125,41.9921875,-39.55078125,15.625
9.27734375,-74.21875,-42.48046875,6.34765625
-25.390625,-114.2578125,-43.45703125,-8.30078125
-42.96875,-43.45703125,-45.41015625,-8.30078125
-21.484375,-1.46484375,-47.8515625,-7.32421875
1.953125,-12.6953125,-47.8515625,-16.6015625
-2.44140625,-73.73046875,-42.48046875,-23.4375
-25.87890625,-118.1640625,-41.015625,-27.83203125
-47.36328125,-98.14453125,-51.26953125,-20.5078125
-28.80859375,0.9765625,-53.7109375,-0.9765625
10.7421875,42.96875,-38.57421875,2.9296875
12.6953125,-39.0625,-30.76171875,-9.27734375
-23.4375,-104.98046875,-42.48046875,-22.4609375
-54.6875,-124.51171875,-51.26953125,-22.94921875
-51.7578125,-29.296875,-43.9453125,-15.13671875
-29.78515625,35.15625,-39.55078125,-12.20703125
-28.80859375,-40.0390625,-40.0390625,-19.04296875
-55.6640625,-155.2734375,-45.8984375,-32.71484375
-75.1953125,-157.2265625,-50.78125,-27.83203125
-58.59375,-26.3671875,-46.875,-13.18359375
-23.4375,18.5546875,-45.41015625,-8.30078125
-20.99609375,-46.38671875,-46.38671875,-18.06640625
-44.921875,-112.79296875,-54.19921875,-36.62109375
-61.03515625,-117.67578125,-55.17578125,-38.57421875
-52.734375,-26.3671875,-41.9921875,-24.4140625
-9.27734375,20.5078125,-36.62109375,-6.8359375
4.39453125,-23.92578125,-34.1796875,-12.20703125
-29.78515625,-59.5703125,-36.1328125,-44.43359375
-52.24609375,-104.4921875,-46.875,-53.7109375
-50.29296875,-43.9453125,-54.19921875,-45.41015625
-8.7890625,24.4140625,-52.24609375,-31.25
14.16015625,-29.78515625,-48.828125,-20.5078125
-22.94921875,-100.09765625,-48.828125,-33.203125
-50.29296875,-110.83984375,-50.78125,-38.57421875
-44.921875,-41.015625,-48.33984375,-23.4375
-15.13671875,20.5078125,-45.8984375,-18.5546875
-2.9296875,1.46484375,-44.43359375,-25.390625
-25.390625,-63.4765625,-44.43359375,-33.69140625
-45.8984375,-94.23828125,-43.9453125,-39.0625
-44.921875,-47.8515625,-36.62109375,-29.296875
-14.6484375,12.20703125,-39.55078125,-21.484375
-7.32421875,-12.20703125,-44.921875,-28.80859375
-22.94921875,-62.98828125,-43.9453125,-41.015625
-41.9921875,-106.93359375,-42.48046875,-47.8515625
-54.6875,-67.3828125,-48.828125,-40.0390625
-31.73828125,16.6015625,-54.19921875,-24.90234375
-14.16015625,3.41796875,-44.43359375,-27.83203125
-22.4609375,-68.84765625,-36.62109375,-40.52734375
-39.55078125,-94.7265625,-38.57421875,-47.36328125
-48.33984375,-77.63671875,-43.9453125,-39.0625
-34.66796875,-8.7890625,-41.50390625,-26.85546875
-16.11328125,58.59375,-35.15625,-25.87890625
-16.6015625,-40.0390625,-35.64453125,-35.15625
-43.45703125,-142.08984375,-39.55078125,-45.41015625
-58.10546875,-92.28515625,-49.31640625,-38.57421875
-45.8984375,2.9296875,-47.36328125,-29.296875
-22.94921875,25.390625,-38.57421875,-30.2734375
-16.6015625,-43.9453125,-38.57421875,-43.45703125
-42.96875,-115.72265625,-41.015625,-55.6640625
-52.734375,-91.796875,-40.52734375,-43.9453125
-28.3203125,18.5546875,-44.43359375,-24.4140625
-14.16015625,15.625,-60.546875,-23.4375
-18.06640625,-37.109375,-55.17578125,-34.66796875
-46.875,-81.54296875,-42.48046875,-50.29296875
-78.61328125,-128.90625,-46.875,-55.6640625
-63.96484375,-39.55078125,-43.9453125,-43.45703125
-30.2734375,9.765625,-42.48046875,-35.64453125
-28.3203125,-30.76171875,-47.8515625,-47.8515625
-49.8046875,-92.7734375,-52.734375,-62.5
-67.87109375,-117.67578125,-55.17578125,-60.05859375
-63.96484375,-36.1328125,-54.19921875,-48.828125
-33.203125,23.4375,-52.734375,-40.52734375
-14.16015625,-0.9765625,-50.29296875,-41.50390625
-34.66796875,-88.37890625,-44.921875,-58.10546875
-54.6875,-92.28515625,-39.55078125,-63.96484375
-42.96875,-4.39453125,-35.64453125,-48.33984375
-22.94921875,15.625,-41.9921875,-38.57421875
-21.484375,-24.4140625,-45.41015625,-38.0859375
-37.109375,-89.35546875,-42.96875,-43.9453125
-62.01171875,-111.328125,-47.8515625,-48.828125
-71.2890625,-53.7109375,-49.8046875,-40.0390625
-46.875,17.08984375,-41.9921875,-27.83203125
-32.2265625,2.9296875,-39.55078125,-34.66796875
-44.43359375,-79.58984375,-42.48046875,-51.7578125
-62.5,-116.69921875,-42.48046875,-58.10546875
-71.77734375,-85.44921875,-52.734375,-49.31640625
-47.36328125,6.8359375,-54.6875,-41.015625
-24.90234375,43.9453125,-46.38671875,-46.38671875
-31.25,-71.77734375,-46.875,-57.6171875
-55.17578125,-126.46484375,-44.921875,-67.87109375
-70.3125,-62.98828125,-46.875,-58.59375
-41.9921875,-13.671875,-52.734375,-42.96875
-14.6484375,-4.39453125,-49.31640625,-34.66796875
-28.3203125,-59.08203125,-41.9921875,-38.57421875
-49.8046875,-116.69921875,-35.64453125,-42.48046875
-62.5,-101.07421875,-35.64453125,-36.1328125
-61.03515625,-8.30078125,-41.50390625,-45.41015625
-44.921875,13.18359375,-48.828125,-49.8046875
-40.0390625,-41.015625,-52.734375,-54.19921875
-61.03515625,-84.47265625,-45.8984375,-66.89453125
-77.63671875,-118.65234375,-39.55078125,-59.08203125
-62.5,-47.36328125,-40.0390625,-42.48046875
-26.3671875,9.765625,-39.55078125,-32.71484375
-17.08984375,-38.0859375,-40.52734375,-39.0625
-38.57421875,-91.796875,-48.33984375,-51.26953125
-55.17578125,-88.37890625,-51.7578125,-50.29296875
-49.31640625,-44.43359375,-53.22265625,-42.96875
-25.390625,-3.41796875,-47.36328125,-36.62109375
-23.4375,-30.76171875,-42.96875,-44.43359375
-50.78125,-95.703125,-45.8984375,-62.01171875
-68.359375,-107.91015625,-55.6640625,-58.10546875
-57.12890625,-24.90234375,-64.453125,-50.78125
-31.73828125,2.44140625,-58.59375,-44.921875
-22.94921875,-52.24609375,-46.875,-44.43359375
-42.48046875,-105.95703125,-50.29296875,-62.5
-71.2890625,-104.98046875,-57.12890625,-66.40625
-72.75390625,-39.0625,-54.6875,-56.15234375
-52.734375,0.48828125,-52.734375,-51.26953125
-46.875,-23.4375,-58.10546875,-58.10546875
-51.7578125,-84.47265625,-59.08203125,-63.96484375
-64.94140625,-114.74609375,-56.640625,-62.5
-70.3125,-73.73046875,-56.15234375,-56.15234375
-44.921875,-7.8125,-56.640625,-45.41015625
-16.11328125,11.71875,-54.19921875,-41.015625
-22.4609375,-79.58984375,-51.26953125,-46.875
-52.24609375,-157.2265625,-61.5234375,-52.734375
-52.734375,-76.171875,-55.6640625,-42.48046875
-30.2734375,6.8359375,-45.41015625,-36.62109375
-20.01953125,-1.46484375,-47.8515625,-44.921875
-29.296875,-70.3125,-51.7578125,-57.12890625
-55.17578125,-107.91015625,-61.03515625,-65.4296875
-73.2421875,-75.1953125,-67.87109375,-61.03515625
-55.6640625,-4.39453125,-63.96484375,-50.78125
-42.48046875,5.37109375,-45.41015625,-42.48046875
-63.4765625,-68.84765625,-38.57421875,-55.17578125
-76.66015625,-87.40234375,-47.8515625,-61.03515625
-83.984375,-96.6796875,-50.29296875,-49.8046875
-61.5234375,-48.33984375,-45.41015625,-41.9921875
-31.73828125,8.30078125,-39.55078125,-40.52734375
-39.55078125,-57.12890625,-47.8515625,-51.26953125
-53.7109375,-111.81640625,-55.17578125,-59.5703125
-64.94140625,-89.84375,-62.98828125,-55.17578125
-52.24609375,-3.90625,-63.96484375,-41.50390625
-14.6484375,20.99609375,-46.875,-34.66796875
-8.30078125,-35.64453125,-36.1328125,-41.9921875
-37.109375,-105.46875,-41.9921875,-55.6640625
-62.5,-103.02734375,-43.9453125,-52.24609375
-46.875,10.7421875,-39.0625,-31.25
-19.53125,7.8125,-42.48046875,-31.25
-23.4375,-41.9921875,-42.48046875,-46.38671875
-42.96875,-80.078125,-44.43359375,-54.19921875
-67.3828125,-129.39453125,-49.8046875,-52.24609375
-59.5703125,-42.96875,-51.7578125,-49.31640625
-23.92578125,27.34375,-44.921875,-41.9921875
-26.85546875,-12.20703125,-40.0390625,-39.55078125
-49.8046875,-85.44921875,-45.8984375,-52.24609375
-69.82421875,-114.2578125,-43.9453125,-54.19921875
-67.87109375,-43.45703125,-38.0859375,-47.36328125
-44.43359375,26.3671875,-36.62109375,-36.1328125
-34.1796875,21.484375,-35.15625,-32.71484375
-46.38671875,-93.75,-39.0625,-51.7578125
-61.03515625,-133.7890625,-41.50390625,-51.7578125
-57.6171875,-58.10546875,-41.015625,-38.0859375
-38.57421875,-9.27734375,-35.15625,-27.83203125
-25.390625,0.48828125,-29.78515625,-32.71484375
-29.296875,-55.17578125,-35.64453125,-49.31640625
-49.31640625,-117.1875,-39.55078125,-54.6875
-54.19921875,-66.40625,-42.96875,-45.41015625
-31.25,17.578125,-47.36328125,-29.78515625
-19.04296875,-0.9765625,-42.96875,-31.25
-29.78515625,-66.40625,-44.43359375,-43.9453125
-48.828125,-75.1953125,-51.7578125,-43.45703125
-53.7109375,-86.42578125,-51.7578125,-38.0859375
-43.9453125,-20.99609375,-49.8046875,-42.48046875
-21.97265625,10.7421875,-40.0390625,-38.57421875
-24.90234375,-61.03515625,-37.59765625,-43.45703125
-44.921875,-92.7734375,-48.33984375,-59.08203125
-58.59375,-77.1484375,-44.43359375,-55.17578125
-55.17578125,-15.13671875,-36.62109375,-41.015625
-37.59765625,22.4609375,-40.0390625,-35.15625
-44.921875,-28.80859375,-44.921875,-45.8984375
-67.87109375,-118.65234375,-46.875,-55.6640625
-75.1953125,-103.515625,-45.8984375,-48.33984375
-63.96484375,17.08984375,-40.52734375,-30.76171875
-41.50390625,16.6015625,-38.0859375,-37.59765625
-35.15625,-66.89453125,-38.0859375,-51.7578125
-55.6640625,-115.234375,-41.015625,-60.05859375
-64.94140625,-100.09765625,-41.50390625,-49.8046875
-56.15234375,-10.25390625,-41.015625,-30.76171875
-41.50390625,15.13671875,-46.38671875,-37.59765625
-33.203125,-26.85546875,-47.36328125,-49.31640625
-42.96875,-97.65625,-47.36328125,-52.24609375
-63.4765625,-125.0,-49.8046875,-49.8046875
-55.6640625,-37.59765625,-49.8046875,-39.55078125
-27.83203125,27.34375,-44.43359375,-25.87890625
-18.06640625,6.8359375,-40.0390625,-28.3203125
-35.15625,-86.9140625,-38.0859375,-40.52734375
-63.96484375,-150.390625,-40.0390625,-45.8984375
-64.94140625,-61.5234375,-43.9453125,-41.015625
-40.52734375,16.11328125,-41.50390625,-40.0390625
-27.83203125,-12.20703125,-41.50390625,-42.48046875
-38.57421875,-81.0546875,-41.9921875,-53.22265625
-50.78125,-95.21484375,-35.15625,-51.26953125
-57.6171875,-25.390625,-33.69140625,-32.71484375
-40.0390625,22.94921875,-35.64453125,-28.3203125
-14.6484375,-3.90625,-38.0859375,-37.109375
-32.71484375,-79.58984375,-43.9453125,-46.38671875
-58.10546875,-99.12109375,-41.015625,-47.8515625
-68.359375,-62.01171875,-43.9453125,-49.8046875
-52.734375,2.9296875,-45.8984375,-40.52734375
-19.53125,19.04296875,-38.0859375,-36.1328125
-28.80859375,-77.63671875,-38.0859375,-52.734375
-65.4296875,-126.953125,-39.55078125,-57.12890625
-67.3828125,-63.4765625,-43.9453125,-42.96875
-39.55078125,29.78515625,-45.8984375,-35.64453125
-26.3671875,17.578125,-38.0859375,-37.109375
-41.9921875,-69.3359375,-41.015625,-49.31640625
-57.12890625,-117.1875,-47.8515625,-58.10546875
-62.01171875,-75.1953125,-46.38671875,-55.6640625
-52.24609375,33.203125,-50.29296875,-48.33984375
-31.73828125,19.04296875,-49.8046875,-35.64453125
-29.78515625,-87.40234375,-48.828125,-43.9453125
-49.31640625,-112.3046875,-51.26953125,-60.05859375
-62.98828125,-79.58984375,-45.8984375,-49.8046875
-46.38671875,-5.37109375,-38.57421875,-27.34375
-23.4375,27.83203125,-41.015625,-26.85546875
-20.01953125,-48.33984375,-45.41015625,-36.1328125
-40.0390625,-113.28125,-48.33984375,-45.41015625
-62.01171875,-99.609375,-51.7578125,-56.15234375
-57.12890625,-23.92578125,-44.43359375,-51.26953125
-33.203125,28.3203125,-34.1796875,-39.55078125
-25.87890625,11.71875,-35.15625,-39.0625
-40.0390625,-107.91015625,-41.015625,-51.7578125
-59.5703125,-123.53515625,-40.52734375,-50.78125
-57.12890625,-27.34375,-41.50390625,-30.76171875
-35.15625,13.18359375,-42.96875,-27.83203125
-32.2265625,-17.08984375,-45.41015625,-42.96875
-43.9453125,-91.30859375,-48.33984375,-59.5703125
-64.453125,-105.46875,-50.78125,-62.98828125
-61.03515625,0.9765625,-52.24609375,-46.875
-33.203125,36.1328125,-53.7109375,-34.1796875
-23.4375,-38.57421875,-62.01171875,-40.52734375
-35.64453125,-60.05859375,-54.6875,-50.78125
-51.26953125,-60.05859375,-34.66796875,-41.015625
-55.6640625,-52.24609375,-29.78515625,-29.78515625
-37.109375,-1.953125,-29.78515625,-26.3671875
-23.4375,-3.41796875,-28.80859375,-29.296875
-46.875,-99.12109375,-28.3203125,-44.43359375
-65.4296875,-127.9296875,-27.34375,-46.38671875
-68.359375,-38.0859375,-35.64453125,-41.9921875
-47.36328125,23.4375,-40.52734375,-37.59765625
-27.34375,4.8828125,-36.62109375,-30.76171875
-38.0859375,-58.59375,-49.31640625,-51.7578125
-55.17578125,-95.21484375,-56.640625,-60.05859375
-56.15234375,-51.26953125,-46.38671875,-47.8515625
-33.203125,37.59765625,-41.9921875,-34.66796875
-23.92578125,18.5546875,-42.48046875,-34.1796875
-43.9453125,-100.09765625,-43.9453125,-55.17578125
-65.91796875,-121.58203125,-44.921875,-59.08203125
-77.1484375,-77.63671875,-48.33984375,-54.6875
-56.15234375,-7.32421875,-47.8515625,-44.43359375
-28.3203125,18.06640625,-40.52734375,-33.203125
-32.71484375,-55.17578125,-42.48046875,-42.96875
-53.22265625,-105.95703125,-51.7578125,-56.640625
-60.05859375,-68.359375,-56.15234375,-45.41015625
-47.8515625,1.953125,-53.7109375,-37.109375
-36.1328125,31.25,-54.6875,-41.015625
-36.62109375,-0.48828125,-57.12890625,-51.7578125
-46.875,-114.74609375,-46.875,-58.10546875
-60.546875,-120.60546875,-41.9921875,-51.7578125
-56.640625,-10.25390625,-47.36328125,-41.9921875
-40.0390625,-0.9765625,-47.36328125,-41.9921875
-36.62109375,-34.66796875,-44.43359375,-50.78125
-58.10546875,-97.16796875,-45.8984375,-58.10546875
-77.1484375,-107.91015625,-46.875,-57.12890625
-63.96484375,-20.99609375,-49.31640625,-43.45703125
-34.66796875,20.01953125,-55.17578125,-34.1796875
-23.92578125,-31.73828125,-53.7109375,-40.0390625
-36.62109375,-90.8203125,-46.38671875,-47.8515625
-54.19921875,-75.1953125,-42.48046875,-41.015625
-56.640625,-39.0625,-43.9453125,-28.3203125
-38.0859375,-23.4375,-43.9453125,-22.94921875
-34.1796875,-28.80859375,-38.57421875,-32.71484375
-49.31640625,-92.28515625,-37.59765625,-53.22265625
-65.91796875,-105.95703125,-42.96875,-62.5
-68.359375,-29.78515625,-40.0390625,-46.38671875
-52.734375,0.9765625,-32.2265625,-34.1796875
-35.15625,-13.671875,-36.1328125,-39.0625
-39.55078125,-81.0546875,-40.52734375,-44.921875
-63.4765625,-122.0703125,-44.921875,-48.33984375
-70.3125,-41.015625,-52.734375,-46.875
-47.8515625,47.36328125,-49.31640625,-34.1796875
-27.83203125,-14.6484375,-42.96875,-33.69140625
-29.296875,-99.609375,-41.50390625,-43.45703125
-58.59375,-121.58203125,-42.48046875,-41.015625
-69.82421875,-83.0078125,-46.875,-33.203125
-47.8515625,-9.27734375,-47.8515625,-28.80859375
-27.83203125,9.27734375,-41.015625,-29.296875
-29.296875,-64.453125,-37.109375,-39.55078125
-53.22265625,-99.12109375,-39.0625,-47.8515625
-68.359375,-70.3125,-40.52734375,-42.48046875
-54.19921875,-35.64453125,-41.50390625,-37.109375
-29.78515625,2.9296875,-38.0859375,-33.69140625
-27.34375,-31.25,-42.48046875,-44.43359375
-46.38671875,-115.72265625,-45.8984375,-58.10546875
-66.89453125,-112.3046875,-47.36328125,-51.7578125
-59.08203125,-25.390625,-48.828125,-45.41015625
-40.52734375,1.953125,-45.41015625,-48.33984375
-42.96875,-53.7109375,-42.48046875,-54.6875
-61.5234375,-104.98046875,-42.48046875,-63.96484375
-71.2890625,-85.9375,-46.38671875,-51.7578125
-56.15234375,-7.32421875,-45.41015625,-34.1796875
-26.85546875,30.2734375,-40.52734375,-30.2734375
-25.390625,-33.203125,-40.0390625,-33.69140625
-43.45703125,-95.703125,-41.50390625,-40.0390625
-58.10546875,-54.19921875,-46.38671875,-40.52734375
-63.96484375,-4.8828125,-51.26953125,-37.109375
-47.36328125,-33.203125,-48.828125,-38.0859375
-35.64453125,-52.734375,-39.55078125,-41.50390625
-51.7578125,-95.21484375,-39.55078125,-49.8046875
-68.359375,-104.00390625,-52.734375,-53.7109375
-66.89453125,-11.23046875,-51.7578125,-42.48046875
-48.33984375,29.296875,-39.55078125,-34.1796875
-36.62109375,-24.90234375,-37.59765625,-42.96875
-50.29296875,-95.21484375,-46.875,-57.6171875
-69.3359375,-115.72265625,-53.7109375,-57.6171875
-65.91796875,-41.015625,-48.828125,-44.921875
-41.015625,45.8984375,-47.36328125,-38.57421875
-32.2265625,-24.4140625,-54.19921875,-47.36328125
-38.0859375,-104.4921875,-50.29296875,-55.6640625
-53.7109375,-98.14453125,-43.9453125,-56.640625
-66.40625,-73.73046875,-45.41015625,-51.7578125
-44.43359375,-0.9765625,-44.921875,-41.9921875
-29.296875,0.0,-42.96875,-39.0625
-44.43359375,-62.5,-48.828125,-54.19921875
-53.22265625,-105.46875,-47.8515625,-62.5
-56.15234375,-62.98828125,-47.8515625,-53.22265625
-47.8515625,1.46484375,-48.33984375,-40.52734375
-32.71484375,-1.46484375,-44.43359375,-35.64453125
-38.0859375,-49.8046875,-45.8984375,-51.26953125
-63.96484375,-121.09375,-52.734375,-64.453125
-69.82421875,-106.4453125,-57.6171875,-52.734375
-46.875,-2.9296875,-52.24609375,-34.66796875
-30.2734375,16.6015625,-46.875,-37.109375
-34.1796875,-54.19921875,-41.50390625,-43.9453125
-52.734375,-83.984375,-43.9453125,-44.921875
-65.4296875,-83.984375,-54.6875,-45.41015625
-56.640625,-15.625,-51.26953125,-41.9921875
-33.203125,14.16015625,-45.41015625,-40.52734375
-27.83203125,-54.19921875,-44.43359375,-52.24609375
-45.41015625,-81.0546875,-44.43359375,-57.12890625
-53.22265625,-60.05859375,-46.875,-51.26953125
-49.8046875,-18.06640625,-52.734375,-48.33984375
-41.50390625,8.30078125,-52.24609375,-39.0625
-39.55078125,-56.640625,-49.31640625,-49.31640625
-56.640625,-105.46875,-54.6875,-71.2890625
-81.54296875,-96.19140625,-52.24609375,-61.5234375
-76.171875,-24.4140625,-50.78125,-46.38671875
-51.7578125,11.23046875,-49.31640625,-40.0390625
-40.0390625,-16.11328125,-42.48046875,-41.50390625
-48.33984375,-78.125,-36.62109375,-49.31640625
-64.453125,-116.2109375,-41.015625,-49.31640625
-62.5,-22.4609375,-47.36328125,-40.0390625
-45.41015625,39.0625,-44.43359375,-33.203125
-38.57421875,-29.78515625,-41.50390625,-40.0390625
-52.24609375,-121.09375,-46.875,-59.08203125
-73.2421875,-117.1875,-55.17578125,-63.96484375
-70.80078125,-29.78515625,-53.7109375,-50.29296875
-47.36328125,12.20703125,-48.828125,-40.52734375
-38.57421875,-17.578125,-50.78125,-44.43359375
-53.22265625,-81.0546875,-52.734375,-64.453125
-70.80078125,-106.93359375,-56.15234375,-73.2421875
-68.359375,-33.69140625,-58.59375,-59.08203125
-39.55078125,23.4375,-52.24609375,-44.43359375
-33.203125,-2.44140625,-47.8515625,-50.29296875
-48.828125,-58.10546875,-43.45703125,-62.01171875
-70.80078125,-97.16796875,-41.50390625,-65.4296875
-80.56640625,-77.63671875,-44.43359375,-60.546875
-59.5703125,-36.62109375,-48.33984375,-47.36328125
-44.43359375,-15.13671875,-47.36328125,-44.921875
-40.52734375,-54.19921875,-38.0859375,-53.7109375
-55.17578125,-91.796875,-44.43359375,-56.640625
-60.05859375,-60.05859375,-48.33984375,-46.38671875
-41.9921875,6.8359375,-41.015625,-33.69140625
-24.90234375,1.953125,-39.0625,-24.90234375
-27.34375,-77.63671875,-46.38671875,-37.109375
-55.17578125,-92.28515625,-45.41015625,-49.8046875
-73.2421875,-46.875,-41.50390625,-48.33984375
-49.8046875,-25.390625,-37.59765625,-35.15625
-32.2265625,1.46484375,-34.66796875,-30.2734375
-37.59765625,-57.6171875,-40.0390625,-43.9453125
-56.15234375,-132.8125,-41.50390625,-45.41015625
-70.80078125,-95.21484375,-41.50390625,-39.0625
-56.640625,-9.765625,-46.38671875,-26.85546875
-43.9453125,4.39453125,-51.26953125,-28.80859375
-41.50390625,-50.78125,-46.875,-43.9453125
-55.17578125,-118.65234375,-39.0625,-56.640625
-75.1953125,-118.1640625,-44.921875,-56.15234375
-62.01171875,-11.23046875,-48.828125,-44.921875
-39.55078125,40.0390625,-44.921875,-47.36328125
-38.57421875,-45.8984375,-45.41015625,-56.640625
-66.40625,-141.6015625,-52.734375,-68.84765625
-83.0078125,-97.16796875,-56.640625,-75.68359375
-65.91796875,-9.27734375,-47.8515625,-56.15234375
-44.921875,12.6953125,-42.48046875,-44.43359375
-41.50390625,-11.71875,-48.828125,-55.6640625
-59.08203125,-121.09375,-53.22265625,-67.3828125
-76.171875,-130.859375,-53.22265625,-64.453125
-71.2890625,-23.92578125,-53.22265625,-55.17578125
-48.33984375,15.13671875,-44.43359375,-42.48046875
-38.0859375,-20.5078125,-40.52734375,-42.96875
-47.8515625,-66.40625,-44.43359375,-57.6171875
-66.40625,-133.7890625,-45.41015625,-59.08203125
-72.75390625,-71.2890625,-48.33984375,-44.921875
-48.828125,8.7890625,-48.828125,-33.69140625
-35.15625,-16.11328125,-41.9921875,-35.64453125
-39.0625,-91.796875,-40.0390625,-43.45703125
-59.5703125,-127.9296875,-45.41015625,-42.48046875
-68.359375,-53.22265625,-49.31640625,-36.1328125
-40.0390625,21.97265625,-46.875,-28.3203125
-20.01953125,5.37109375,-43.9453125,-28.3203125
-33.203125,-100.5859375,-44.43359375,-44.43359375
-50.78125,-106.4453125,-48.33984375,-51.26953125
-56.640625,-23.4375,-46.38671875,-41.9921875
-45.8984375,-9.765625,-44.921875,-36.62109375
-27.83203125,-19.53125,-41.50390625,-39.0625
-23.92578125,-43.45703125,-36.1328125,-46.38671875
-38.57421875,-88.8671875,-33.69140625,-51.26953125
-55.17578125,-67.87109375,-39.55078125,-47.8515625
-41.015625,3.41796875,-46.875,-39.55078125
-19.04296875,16.6015625,-46.875,-32.2265625
-22.4609375,-60.546875,-47.8515625,-40.52734375
-48.33984375,-101.07421875,-49.8046875,-47.8515625
-61.5234375,-64.94140625,-45.8984375,-41.015625
-40.52734375,15.625,-38.57421875,-31.25
-26.85546875,58.10546875,-38.0859375,-32.71484375
-38.0859375,-51.7578125,-42.96875,-51.26953125
-56.640625,-148.92578125,-46.38671875,-69.3359375
-64.453125,-94.23828125,-49.31640625,-60.546875
-45.41015625,11.23046875,-43.9453125,-36.62109375
-23.4375,30.2734375,-41.015625,-33.69140625
-29.296875,-45.41015625,-49.31640625,-53.7109375
-51.7578125,-102.5390625,-52.24609375,-68.84765625
-72.265625,-100.09765625,-55.17578125,-64.453125
-60.546875,-1.953125,-50.29296875,-47.36328125
-31.25,4.8828125,-42.48046875,-44.921875
-34.1796875,-39.55078125,-43.9453125,-47.8515625
-45.41015625,-48.33984375,-45.41015625,-52.24609375
-57.12890625,-110.3515625,-47.36328125,-56.15234375
-52.24609375,-41.9921875,-45.8984375,-41.9921875
-24.90234375,20.5078125,-44.43359375,-34.1796875
-28.80859375,-41.015625,-41.9921875,-44.43359375
-48.828125,-90.8203125,-42.48046875,-57.6171875
-66.89453125,-111.81640625,-50.78125,-62.01171875
-73.2421875,-7.8125,-54.19921875,-55.6640625
-54.6875,32.71484375,-45.8984375,-43.9453125
-48.33984375,-20.01953125,-41.015625,-48.828125
-62.5,-77.1484375,-52.734375,-72.75390625
-76.66015625,-91.796875,-55.6640625,-74.70703125
-82.03125,-13.671875,-53.7109375,-62.5
-66.89453125,2.44140625,-54.6875,-57.6171875
-52.734375,-19.04296875,-48.33984375,-61.03515625
-60.05859375,-80.56640625,-46.875,-67.87109375
-76.171875,-126.953125,-51.7578125,-70.80078125
-78.125,-58.59375,-49.8046875,-62.5
-54.19921875,18.06640625,-38.57421875,-46.38671875
-37.109375,-15.625,-35.15625,-40.52734375
-46.38671875,-80.078125,-40.0390625,-50.78125
-67.87109375,-99.12109375,-45.8984375,-59.5703125
-76.171875,-79.58984375,-48.33984375,-46.875
-59.08203125,11.23046875,-46.38671875,-34.66796875
-36.1328125,33.69140625,-42.48046875,-33.69140625
-45.8984375,-71.2890625,-43.45703125,-47.36328125
-69.3359375,-119.62890625,-48.828125,-62.01171875
-80.078125,-100.09765625,-47.36328125,-52.734375
-68.84765625,3.90625,-43.45703125,-40.0390625
-48.828125,34.1796875,-38.57421875,-44.921875
-55.6640625,-54.19921875,-38.0859375,-56.640625
-81.0546875,-95.21484375,-41.9921875,-75.68359375
-103.02734375,-75.68359375,-49.31640625,-87.890625
-76.171875,23.92578125,-46.38671875,-69.3359375
-62.01171875,11.71875,-37.109375,-69.3359375
-100.5859375,-64.94140625,-41.015625,-109.86328125
-127.9296875,-68.84765625,-37.109375,-130.37109375
-142.08984375,-89.84375,-31.73828125,-126.953125
-139.6484375,-27.83203125,-30.76171875,-125.0
-117.67578125,34.1796875,-24.4140625,-118.1640625
-118.1640625,-26.3671875,-17.578125,-130.859375
-146.97265625,-113.76953125,-14.6484375,-149.4140625
-167.96875,-103.02734375,-16.6015625,-146.484375
-161.62109375,-7.32421875,-21.484375,-142.578125
-141.11328125,27.34375,-17.578125,-137.20703125
-145.99609375,-20.99609375,-9.27734375,-142.578125
-171.38671875,-86.42578125,-12.20703125,-160.15625
-190.4296875,-96.19140625,-14.6484375,-159.66796875
-189.94140625,-17.578125,-10.7421875,-150.390625
-162.109375,16.6015625,-7.8125,-141.11328125
-143.06640625,-53.22265625,-7.8125,-134.27734375
-157.2265625,-117.67578125,-6.8359375,-144.04296875
-178.22265625,-114.2578125,-4.39453125,-157.71484375
-172.36328125,-37.59765625,-3.41796875,-150.87890625
-147.4609375,12.20703125,-3.90625,-136.71875
-131.8359375,-12.6953125,-5.37109375,-134.765625
-134.27734375,-84.47265625,-7.32421875,-136.23046875
-154.296875,-122.0703125,-11.71875,-138.671875
-154.78515625,-60.05859375,-14.16015625,-131.8359375
-118.65234375,12.6953125,-8.30078125,-111.328125
-92.7734375,21.484375,-8.30078125,-103.02734375
-104.98046875,-83.49609375,-18.06640625,-109.375
-127.9296875,-137.20703125,-21.484375,-115.72265625
-132.32421875,-62.5,-17.08984375,-109.375
-111.328125,-11.23046875,-13.671875,-90.33203125
-75.1953125,3.90625,-9.27734375,-68.84765625
-82.03125,-58.59375,-14.6484375,-78.125
-108.88671875,-94.7265625,-16.6015625,-92.28515625
-123.046875,-80.56640625,-16.11328125,-87.40234375
-113.76953125,-13.18359375,-13.18359375,-75.68359375
-87.40234375,2.44140625,-9.765625,-74.70703125
-76.171875,-70.80078125,-8.7890625,-74.70703125
-85.9375,-87.890625,-12.6953125,-70.3125
-96.6796875,-91.796875,-20.5078125,-69.3359375
-85.44921875,-27.34375,-22.94921875,-73.2421875
-72.265625,13.671875,-26.85546875,-79.1015625
-72.265625,-74.21875,-30.76171875,-79.58984375
-76.171875,-80.078125,-31.73828125,-77.63671875
-76.66015625,-47.36328125,-41.015625,-76.171875
-72.265625,-20.5078125,-47.8515625,-73.73046875
-53.7109375,11.23046875,-43.9453125,-69.82421875
-65.91796875,-32.2265625,-41.015625,-78.125
-97.65625,-99.12109375,-42.48046875,-87.40234375
-107.91015625,-95.21484375,-47.8515625,-83.0078125
-94.23828125,10.7421875,-44.921875,-63.4765625
-68.84765625,15.625,-36.1328125,-55.6640625
-70.3125,-62.5,-35.15625,-69.82421875
-81.0546875,-116.69921875,-40.0390625,-81.54296875
-88.37890625,-111.81640625,-38.0859375,-75.68359375
-82.03125,-34.66796875,-36.1328125,-64.94140625
-56.15234375,4.8828125,-35.64453125,-57.12890625
-39.0625,-41.50390625,-36.1328125,-58.10546875
-59.08203125,-88.8671875,-39.55078125,-73.73046875
-84.47265625,-106.93359375,-41.9921875,-72.75390625
-74.70703125,-70.80078125,-41.50390625,-54.19921875
-42.96875,13.18359375,-40.52734375,-43.45703125
-25.390625,19.04296875,-43.9453125,-46.38671875
-51.26953125,-96.19140625,-52.24609375,-60.546875
-74.21875,-123.53515625,-50.29296875,-62.98828125
-70.80078125,-30.2734375,-52.24609375,-54.19921875
-55.6640625,18.5546875,-51.7578125,-46.875
-41.015625,-1.953125,-45.41015625,-44.43359375
-54.6875,-80.56640625,-44.921875,-59.08203125
-81.54296875,-116.69921875,-52.24609375,-68.359375
-67.87109375,-63.96484375,-54.19921875,-46.38671875
-32.2265625,13.671875,-47.8515625,-31.73828125
-27.83203125,16.6015625,-42.48046875,-48.828125
-41.50390625,-61.5234375,-39.0625,-57.12890625
-49.31640625,-72.75390625,-45.41015625,-48.828125
-60.546875,-50.29296875,-56.15234375,-44.43359375
-51.7578125,-17.578125,-51.26953125,-41.015625
-37.59765625,6.8359375,-42.96875,-56.15234375
-40.52734375,-68.84765625,-52.24609375,-67.87109375
-43.9453125,-106.93359375,-56.15234375,-51.7578125
-43.9453125,-60.546875,-62.01171875,-45.41015625
-33.69140625,15.13671875,-66.89453125,-44.921875
-14.16015625,32.71484375,-48.828125,-38.0859375
-21.97265625,-37.109375,-42.48046875,-51.26953125
-50.78125,-102.5390625,-48.828125,-67.3828125
-57.6171875,-79.1015625,-52.24609375,-59.5703125
-43.45703125,29.296875,-51.26953125,-46.38671875
-33.69140625,6.8359375,-43.45703125,-40.0390625
-36.1328125,-51.7578125,-44.921875,-45.8984375
-59.5703125,-89.84375,-49.8046875,-61.5234375
-75.1953125,-121.58203125,-55.6640625,-64.94140625
-64.94140625,-21.484375,-52.24609375,-54.19921875
-51.7578125,22.4609375,-46.38671875,-58.59375
-53.7109375,-22.94921875,-50.29296875,-70.3125
-61.5234375,-97.65625,-49.8046875,-71.2890625
-75.1953125,-118.65234375,-45.41015625,-64.453125
-69.82421875,-23.4375,-44.921875,-52.24609375
-40.0390625,27.83203125,-43.9453125,-41.50390625
-35.15625,-10.7421875,-50.78125,-44.921875
-51.7578125,-104.98046875,-55.17578125,-65.91796875
-79.58984375,-124.0234375,-50.29296875,-74.70703125
-76.66015625,-29.296875,-52.24609375,-64.453125
-35.64453125,22.94921875,-56.15234375,-46.875
-27.83203125,17.578125,-45.41015625,-49.31640625
-50.29296875,-82.03125,-42.96875,-65.91796875
-71.77734375,-129.39453125,-49.31640625,-62.98828125
-74.70703125,-20.5078125,-46.875,-52.734375
-47.36328125,21.484375,-47.36328125,-43.45703125
-23.4375,-4.8828125,-43.45703125,-39.0625
-24.4140625,-79.58984375,-42.48046875,-46.38671875
-49.8046875,-98.14453125,-46.875,-57.12890625
-65.4296875,-50.29296875,-43.45703125,-56.640625
-41.50390625,-17.578125,-40.52734375,-45.41015625
-14.6484375,3.90625,-41.015625,-35.15625
-26.3671875,-59.5703125,-43.9453125,-47.36328125
-56.15234375,-84.47265625,-46.875,-60.546875
-74.70703125,-41.015625,-47.36328125,-57.6171875
-60.546875,-0.9765625,-52.24609375,-47.8515625
-42.48046875,12.6953125,-49.8046875,-43.45703125
-55.6640625,-62.01171875,-44.921875,-53.22265625
-78.125,-122.55859375,-47.36328125,-61.5234375
-92.28515625,-90.33203125,-50.78125,-57.6171875
-72.75390625,8.30078125,-46.38671875,-48.828125
-45.8984375,19.04296875,-37.109375,-44.921875
-45.8984375,-80.56640625,-41.015625,-52.24609375
-55.17578125,-113.76953125,-42.96875,-56.15234375
-65.4296875,-83.984375,-38.57421875,-48.33984375
-49.31640625,-0.48828125,-39.0625,-39.55078125
-12.6953125,29.296875,-43.45703125,-30.2734375
-17.08984375,-29.78515625,-44.921875,-45.41015625
-42.48046875,-91.796875,-48.828125,-64.94140625
-48.33984375,-89.35546875,-52.24609375,-48.33984375
-42.48046875,1.953125,-49.31640625,-35.15625
-29.296875,38.0859375,-44.921875,-31.25
-32.71484375,-20.01953125,-44.43359375,-41.015625
-50.29296875,-90.33203125,-45.8984375,-47.36328125
-67.87109375,-117.67578125,-46.875,-42.48046875
-62.98828125,-31.25,-50.78125,-41.9921875
-27.34375,34.66796875,-46.38671875,-25.87890625
-24.90234375,-9.27734375,-41.50390625,-30.76171875
-51.26953125,-106.93359375,-47.8515625,-51.7578125
-68.359375,-110.3515625,-50.78125,-56.640625
-67.87109375,-15.13671875,-53.22265625,-54.19921875
-53.7109375,22.94921875,-58.59375,-56.640625
-43.45703125,-25.390625,-50.78125,-63.4765625
-49.31640625,-87.890625,-48.33984375,-69.3359375
-71.77734375,-75.68359375,-55.6640625,-66.89453125
-73.73046875,-55.6640625,-55.17578125,-54.19921875
-42.48046875,0.48828125,-61.03515625,-49.8046875
-17.08984375,14.6484375,-58.10546875,-50.29296875
-29.78515625,-95.703125,-44.43359375,-50.29296875
-59.08203125,-111.81640625,-45.41015625,-52.24609375
-63.96484375,-35.64453125,-49.31640625,-40.0390625
-20.5078125,16.6015625,-42.96875,-20.99609375
8.30078125,22.94921875,-42.96875,-23.4375
-26.85546875,-53.22265625,-47.36328125,-42.48046875
-68.84765625,-121.58203125,-49.31640625,-52.24609375
-82.51953125,-68.359375,-52.24609375,-50.78125
-62.98828125,27.83203125,-53.22265625,-42.96875
-41.50390625,-7.8125,-52.734375,-39.55078125
-41.015625,-97.65625,-52.734375,-44.43359375
-58.10546875,-121.09375,-52.734375,-49.31640625
-72.265625,-87.40234375,-57.12890625,-45.41015625
-55.17578125,-0.48828125,-57.6171875,-35.15625
-28.3203125,18.5546875,-49.31640625,-38.0859375
-32.2265625,-73.2421875,-50.29296875,-53.7109375
-60.05859375,-114.2578125,-58.10546875,-61.03515625
-76.171875,-81.0546875,-55.17578125,-58.59375
-56.640625,-8.7890625,-51.26953125,-53.22265625
-28.3203125,62.01171875,-47.8515625,-50.29296875
-35.64453125,-8.30078125,-48.828125,-60.546875
-58.59375,-141.11328125,-53.7109375,-69.82421875
-65.91796875,-122.0703125,-54.6875,-58.10546875
-47.8515625,-1.953125,-45.41015625,-42.48046875
-20.01953125,34.66796875,-36.62109375,-34.66796875
-17.578125,-34.66796875,-40.52734375,-35.64453125
-37.109375,-109.86328125,-50.78125,-46.875
-54.6875,-115.72265625,-50.29296875,-42.96875
-51.26953125,4.8828125,-48.33984375,-31.73828125
-19.53125,47.8515625,-45.8984375,-22.94921875
-18.5546875,-50.78125,-44.43359375,-35.64453125
-42.96875,-87.890625,-42.48046875,-41.9921875
-48.828125,-57.12890625,-39.55078125,-30.2734375
-46.875,-23.92578125,-41.9921875,-27.83203125
-29.78515625,2.44140625,-41.50390625,-25.87890625
-24.90234375,-18.5546875,-41.015625,-29.78515625
-40.52734375,-94.23828125,-39.0625,-41.9921875
-60.546875,-112.3046875,-40.52734375,-44.921875
-65.4296875,-27.34375,-44.921875,-41.9921875
-28.80859375,34.66796875,-38.57421875,-38.57421875
-15.13671875,1.46484375,-35.64453125,-43.9453125
-40.0390625,-88.37890625,-42.96875,-57.12890625
-62.5,-124.51171875,-44.921875,-54.6875
-68.359375,-32.71484375,-43.45703125,-45.41015625
-45.8984375,52.734375,-43.45703125,-40.52734375
-29.78515625,-2.9296875,-45.41015625,-48.33984375
-37.59765625,-96.19140625,-42.96875,-57.12890625
-52.734375,-125.9765625,-42.48046875,-52.734375
-54.6875,-44.921875,-47.8515625,-43.45703125
-25.87890625,31.73828125,-46.875,-35.15625
-12.20703125,2.44140625,-41.015625,-35.64453125
-35.64453125,-77.1484375,-41.015625,-50.29296875
-63.4765625,-106.93359375,-44.43359375,-60.546875
-77.63671875,-57.6171875,-41.50390625,-52.734375
-62.01171875,15.625,-37.109375,-43.45703125
-35.15625,26.85546875,-36.1328125,-38.57421875
-37.59765625,-20.99609375,-42.96875,-45.41015625
-59.08203125,-97.65625,-47.36328125,-52.734375
-72.265625,-90.33203125,-50.29296875,-43.45703125
-59.5703125,10.25390625,-45.41015625,-31.25
-41.9921875,1.46484375,-40.0390625,-34.66796875
-37.109375,-73.73046875,-43.9453125,-47.36328125
-56.640625,-113.28125,-46.875,-48.33984375
-74.70703125,-86.9140625,-55.6640625,-54.6875
-53.7109375,17.08984375,-63.4765625,-54.6875
-33.69140625,34.66796875,-56.15234375,-54.6875
-38.57421875,-39.55078125,-46.38671875,-67.87109375
-55.6640625,-74.70703125,-44.921875,-64.94140625
-77.63671875,-74.70703125,-45.8984375,-51.7578125
-62.98828125,-28.3203125,-41.9921875,-36.62109375
-24.4140625,12.20703125,-38.57421875,-31.25
-22.4609375,-28.3203125,-42.48046875,-42.48046875
-54.6875,-104.98046875,-44.921875,-57.6171875
-82.51953125,-87.890625,-43.45703125,-60.05859375
-65.91796875,-4.39453125,-43.45703125,-45.8984375
-39.0625,10.7421875,-45.8984375,-39.55078125
-47.36328125,-37.59765625,-50.78125,-54.19921875
-69.82421875,-102.5390625,-52.734375,-63.4765625
-85.44921875,-125.0,-55.6640625,-60.05859375
-75.68359375,-17.578125,-60.05859375,-52.734375
-31.73828125,67.3828125,-57.12890625,-32.71484375
-18.06640625,-34.66796875,-51.7578125,-28.3203125
-45.41015625,-115.234375,-53.22265625,-47.36328125
-74.70703125,-100.5859375,-55.17578125,-53.22265625
-79.58984375,-40.52734375,-57.6171875,-45.41015625
-44.43359375,22.4609375,-53.22265625,-39.55078125
-24.90234375,-1.46484375,-53.22265625,-45.8984375
-44.43359375,-82.51953125,-53.7109375,-60.05859375
-74.70703125,-106.93359375,-50.78125,-62.01171875
-79.58984375,-26.85546875,-54.6875,-53.22265625
-43.9453125,21.97265625,-48.828125,-46.875
-20.01953125,4.39453125,-42.96875,-46.875
-41.50390625,-58.59375,-49.31640625,-54.6875
-80.56640625,-130.859375,-50.78125,-62.5
-91.30859375,-83.49609375,-49.8046875,-53.22265625
-60.546875,36.1328125,-45.41015625,-34.1796875
-30.76171875,29.78515625,-40.52734375,-28.80859375
-45.41015625,-68.84765625,-48.828125,-51.7578125
-67.87109375,-103.02734375,-55.6640625,-63.4765625
-71.77734375,-74.21875,-59.5703125,-48.828125
-42.96875,14.16015625,-59.08203125,-36.1328125
-21.97265625,35.15625,-53.22265625,-41.9921875
-30.2734375,-57.6171875,-54.6875,-54.6875
-50.78125,-108.3984375,-59.08203125,-58.10546875
-64.453125,-56.15234375,-56.15234375,-52.24609375
-49.31640625,6.8359375,-51.7578125,-46.875
-30.2734375,-0.48828125,-47.36328125,-47.36328125
-34.1796875,-67.3828125,-46.875,-50.29296875
-57.6171875,-113.28125,-51.7578125,-53.7109375
-66.89453125,-97.16796875,-53.7109375,-46.38671875
-49.31640625,-13.18359375,-51.26953125,-43.9453125
-27.34375,27.83203125,-50.78125,-48.33984375
-22.4609375,-40.52734375,-51.26953125,-54.19921875
-44.921875,-108.3984375,-53.22265625,-60.546875
-69.82421875,-117.67578125,-59.5703125,-62.98828125
-61.03515625,-5.37109375,-61.03515625,-61.5234375
-32.2265625,56.640625,-56.640625,-52.24609375
-21.97265625,-31.25,-51.7578125,-51.7578125
-51.26953125,-110.3515625,-51.26953125,-67.3828125
-75.1953125,-102.5390625,-56.640625,-67.3828125
-62.98828125,-30.2734375,-62.5,-52.24609375
-25.390625,29.296875,-51.26953125,-40.0390625
-19.04296875,-12.6953125,-47.8515625,-44.921875
-44.43359375,-95.703125,-57.6171875,-58.59375
-71.2890625,-117.1875,-58.10546875,-62.5
-63.4765625,-31.73828125,-55.6640625,-54.19921875
-21.97265625,31.25,-53.7109375,-41.015625
-8.7890625,10.25390625,-48.33984375,-41.50390625
-31.73828125,-42.96875,-47.36328125,-56.640625
-56.15234375,-98.6328125,-56.640625,-64.94140625
-45.8984375,-57.12890625,-54.19921875,-41.9921875
-24.4140625,22.4609375,-47.8515625,-34.1796875
-21.484375,-1.46484375,-45.8984375,-47.8515625
-32.71484375,-69.3359375,-46.875,-53.7109375
-54.19921875,-88.37890625,-50.29296875,-59.5703125
-50.78125,-58.59375,-50.78125,-41.015625
-26.85546875,13.18359375,-49.31640625,-32.2265625
-21.484375,22.4609375,-47.8515625,-51.7578125
-30.2734375,-71.2890625,-50.29296875,-56.640625
-52.734375,-88.8671875,-56.15234375,-57.12890625
-67.3828125,-28.3203125,-50.78125,-56.15234375
-34.66796875,5.37109375,-40.52734375,-41.50390625
-10.25390625,0.9765625,-44.43359375,-35.64453125
-33.203125,-67.3828125,-47.8515625,-44.921875
-66.89453125,-109.375,-41.015625,-49.8046875
-69.82421875,-83.984375,-41.9921875,-46.38671875
-40.0390625,3.90625,-41.015625,-30.76171875
-23.92578125,23.4375,-33.69140625,-28.80859375
-24.90234375,-57.12890625,-35.15625,-41.9921875
-48.828125,-103.02734375,-45.8984375,-41.50390625
-63.96484375,-106.93359375,-50.29296875,-29.78515625
-46.38671875,5.37109375,-51.26953125,-29.296875
-12.6953125,80.078125,-48.828125,-23.4375
-5.37109375,-49.31640625,-49.31640625,-26.3671875
-25.87890625,-135.25390625,-52.734375,-38.0859375
-37.109375,-97.65625,-48.33984375,-28.80859375
-39.55078125,-7.32421875,-49.31640625,-26.85546875
-13.18359375,34.66796875,-47.36328125,-25.390625
-11.23046875,-11.71875,-43.45703125,-26.3671875
-47.8515625,-102.5390625,-50.78125,-50.29296875
-74.21875,-97.65625,-51.26953125,-55.17578125
-64.453125,6.34765625,-44.921875,-41.9921875
-30.2734375,23.92578125,-43.45703125,-38.0859375
-18.5546875,-11.71875,-39.0625,-39.55078125
-45.8984375,-65.91796875,-38.0859375,-53.7109375
-75.1953125,-114.74609375,-43.9453125,-60.546875
-68.359375,-69.82421875,-52.734375,-47.8515625
-37.109375,4.8828125,-52.734375,-36.62109375
-22.94921875,-11.23046875,-39.55078125,-41.015625
-40.52734375,-88.37890625,-35.15625,-54.6875
-60.05859375,-128.41796875,-38.57421875,-54.19921875
-55.6640625,-41.50390625,-40.0390625,-38.57421875
-29.296875,33.69140625,-41.9921875,-35.15625
-17.08984375,0.48828125,-44.43359375,-36.62109375
-29.296875,-82.51953125,-44.43359375,-44.921875
-54.6875,-107.421875,-48.828125,-55.6640625
-60.546875,-1.46484375,-53.7109375,-42.96875
-31.73828125,17.578125,-52.734375,-25.390625
-16.6015625,-19.04296875,-49.31640625,-30.2734375
-43.45703125,-56.15234375,-49.31640625,-55.17578125
-65.4296875,-125.0,-52.734375,-64.453125
-62.01171875,-76.66015625,-53.22265625,-44.43359375
-55.17578125,10.7421875,-48.33984375,-41.50390625
-49.31640625,7.8125,-48.33984375,-55.6640625
-53.7109375,-68.84765625,-52.734375,-66.40625
-83.49609375,-108.3984375,-60.05859375,-79.58984375
-102.05078125,-77.1484375,-61.03515625,-81.54296875
-72.265625,8.30078125,-58.59375,-67.3828125
-51.7578125,36.62109375,-61.03515625,-64.453125
-58.10546875,-77.1484375,-58.59375,-78.125
-75.1953125,-154.78515625,-61.03515625,-86.9140625
-87.40234375,-100.09765625,-62.5,-70.80078125
-58.10546875,-9.27734375,-59.08203125,-53.22265625
-23.4375,20.99609375,-54.6875,-48.33984375
-21.484375,-41.9921875,-53.7109375,-48.828125
-38.57421875,-128.90625,-54.6875,-46.38671875
-57.12890625,-105.95703125,-55.6640625,-38.0859375
-50.78125,-15.625,-54.19921875,-27.34375
-26.85546875,23.4375,-53.7109375,-25.87890625
-27.34375,-23.4375,-58.10546875,-44.921875
-46.38671875,-81.54296875,-56.640625,-53.22265625
-63.96484375,-129.39453125,-53.22265625,-49.8046875
-61.5234375,-57.6171875,-49.31640625,-50.29296875
-39.0625,18.5546875,-50.78125,-49.31640625
-34.66796875,-38.57421875,-57.6171875,-62.5
-51.7578125,-99.12109375,-60.05859375,-74.21875
-74.70703125,-113.76953125,-55.6640625,-63.4765625
-72.75390625,-38.57421875,-53.22265625,-48.33984375
-43.45703125,33.203125,-50.78125,-46.875
-39.0625,-13.671875,-51.7578125,-59.5703125
-63.4765625,-132.32421875,-48.828125,-76.171875
-84.47265625,-108.3984375,-47.36328125,-79.58984375
-83.0078125,1.953125,-53.22265625,-68.84765625
-52.734375,9.27734375,-49.31640625,-58.10546875
-35.15625,-27.83203125,-45.41015625,-57.12890625
-45.41015625,-73.2421875,-51.7578125,-65.91796875
-65.91796875,-108.3984375,-52.734375,-72.265625
-64.94140625,-63.4765625,-54.19921875,-59.5703125
-37.59765625,26.3671875,-51.26953125,-41.9921875
-30.76171875,14.6484375,-45.41015625,-43.45703125
-44.43359375,-98.14453125,-46.38671875,-56.15234375
-61.5234375,-117.67578125,-42.48046875,-58.10546875
-79.58984375,-51.26953125,-39.55078125,-51.7578125
-68.84765625,14.16015625,-39.55078125,-48.33984375
-41.9921875,41.9921875,-37.109375,-47.8515625
-54.19921875,-48.33984375,-41.50390625,-58.59375
-77.1484375,-124.51171875,-46.38671875,-66.40625
-78.125,-78.125,-44.43359375,-55.6640625
-62.5,12.20703125,-46.875,-53.22265625
-41.50390625,16.6015625,-42.96875,-59.08203125
-48.828125,-68.359375,-36.62109375,-65.4296875
-79.1015625,-118.1640625,-41.50390625,-74.21875
-89.35546875,-76.66015625,-43.9453125,-69.82421875
-66.40625,26.3671875,-41.015625,-57.12890625
-41.50390625,29.296875,-40.0390625,-55.6640625
-50.78125,-52.734375,-43.9453125,-70.3125
-77.1484375,-69.82421875,-45.41015625,-83.0078125
-91.796875,-96.19140625,-45.41015625,-79.1015625
-73.2421875,-15.13671875,-45.8984375,-61.03515625
-49.8046875,56.640625,-50.78125,-58.10546875
-41.50390625,-44.43359375,-52.24609375,-65.91796875
-60.05859375,-104.4921875,-49.31640625,-73.2421875
-82.03125,-84.47265625,-42.48046875,-68.84765625
-62.5,0.0,-35.64453125,-48.828125
-34.66796875,33.203125,-37.59765625,-49.31640625
-38.57421875,-20.5078125,-39.55078125,-61.03515625
-56.640625,-95.703125,-40.0390625,-56.640625
-64.94140625,-107.91015625,-42.96875,-44.921875
-57.12890625,10.25390625,-42.48046875,-34.1796875
-37.59765625,30.2734375,-40.0390625,-29.78515625
-36.1328125,-41.50390625,-47.36328125,-44.921875
-51.7578125,-91.30859375,-50.78125,-55.6640625
-68.84765625,-102.5390625,-46.38671875,-49.8046875
-64.453125,-7.8125,-47.8515625,-45.41015625
-42.96875,38.57421875,-46.875,-47.8515625
-33.203125,-16.6015625,-46.875,-53.7109375
-42.96875,-78.125,-45.8984375,-56.15234375
-62.98828125,-105.46875,-49.31640625,-56.640625
-59.08203125,-55.17578125,-56.640625,-46.38671875
-18.5546875,18.5546875,-56.640625,-27.83203125
-4.39453125,27.83203125,-43.45703125,-31.25
-22.94921875,-88.8671875,-40.52734375,-47.36328125
-41.015625,-130.859375,-53.22265625,-49.31640625
-40.52734375,-48.33984375,-53.7109375,-32.2265625
-14.6484375,18.06640625,-51.26953125,-21.484375
3.41796875,22.4609375,-51.26953125,-30.2734375
-16.11328125,-65.91796875,-46.875,-44.43359375
-57.6171875,-120.1171875,-47.8515625,-51.7578125
-72.265625,-62.98828125,-48.828125,-43.45703125
-46.875,27.83203125,-45.8984375,-29.296875
-23.92578125,4.8828125,-42.48046875,-28.3203125
-39.55078125,-68.84765625,-49.8046875,-44.43359375
-62.98828125,-72.75390625,-49.8046875,-51.26953125
-76.66015625,-97.65625,-46.38671875,-51.26953125
-62.98828125,-24.4140625,-50.78125,-50.78125
-36.1328125,27.34375,-48.33984375,-56.640625
-43.9453125,-72.75390625,-48.828125,-69.3359375
-62.01171875,-120.1171875,-44.43359375,-60.546875
-81.54296875,-94.7265625,-43.9453125,-53.22265625
-74.21875,-2.44140625,-46.38671875,-58.59375
-43.45703125,26.3671875,-40.0390625,-53.7109375
-38.0859375,-40.52734375,-38.0859375,-53.22265625
-56.640625,-107.421875,-41.9921875,-58.59375
-62.01171875,-88.8671875,-41.9921875,-49.31640625
-45.41015625,29.78515625,-41.50390625,-36.62109375
-14.16015625,26.85546875,-44.43359375,-30.2734375
-12.20703125,-71.77734375,-39.55078125,-30.2734375
-39.55078125,-115.72265625,-36.62109375,-43.9453125
-61.03515625,-103.02734375,-45.41015625,-53.7109375
-52.24609375,-16.6015625,-48.33984375,-41.9921875
-30.76171875,23.92578125,-45.41015625,-36.62109375
-24.90234375,6.8359375,-46.38671875,-43.9453125
-38.57421875,-82.51953125,-51.7578125,-46.875
-64.94140625,-127.9296875,-48.33984375,-44.921875
-76.171875,-43.45703125,-41.9921875,-44.921875
-58.10546875,26.3671875,-44.921875,-40.52734375
-42.48046875,14.16015625,-51.26953125,-42.48046875
-64.94140625,-106.4453125,-48.33984375,-55.17578125
-89.35546875,-138.18359375,-44.921875,-60.05859375
-80.56640625,-40.52734375,-44.921875,-51.7578125
-50.78125,3.41796875,-39.55078125,-40.52734375
-41.9921875,-2.9296875,-41.50390625,-44.921875
-53.7109375,-78.61328125,-41.50390625,-50.78125
-69.82421875,-116.2109375,-43.9453125,-51.26953125
-70.80078125,-48.33984375,-49.31640625,-47.36328125
-40.0390625,21.97265625,-48.828125,-39.0625
-17.578125,15.625,-45.8984375,-35.15625
-22.94921875,-52.24609375,-39.0625,-37.109375
-49.8046875,-79.58984375,-43.45703125,-49.31640625
-64.94140625,-79.58984375,-49.31640625,-55.17578125
-36.62109375,-11.23046875,-46.38671875,-42.96875
-14.6484375,9.765625,-42.96875,-39.55078125
-28.80859375,-77.63671875,-45.41015625,-46.875
-56.15234375,-98.14453125,-52.24609375,-59.08203125
-75.1953125,-61.03515625,-55.17578125,-55.6640625
-59.08203125,-23.4375,-56.640625,-36.62109375
-35.15625,8.30078125,-56.15234375,-38.0859375
-42.96875,-65.91796875,-53.22265625,-60.05859375
-62.5,-130.859375,-51.7578125,-68.359375
-72.75390625,-89.35546875,-56.15234375,-61.5234375
-59.5703125,20.99609375,-54.6875,-48.828125
-33.203125,5.37109375,-54.19921875,-42.96875
-28.3203125,-76.171875,-57.12890625,-50.29296875
-54.19921875,-101.07421875,-60.546875,-66.89453125
-75.1953125,-92.7734375,-61.5234375,-66.40625
-55.6640625,-24.90234375,-50.78125,-48.33984375
-22.4609375,4.39453125,-41.9921875,-41.9921875
-26.3671875,-41.9921875,-43.9453125,-54.19921875
-49.8046875,-101.07421875,-45.8984375,-62.5
-54.19921875,-93.26171875,-49.31640625,-52.734375
-43.9453125,-29.296875,-49.31640625,-37.109375
-22.94921875,-2.44140625,-42.96875,-29.78515625
-15.625,-14.16015625,-49.31640625,-35.15625
-41.015625,-93.75,-52.24609375,-46.38671875
-62.5,-139.6484375,-54.19921875,-47.36328125
-54.6875,-49.8046875,-59.08203125,-32.2265625
-32.71484375,4.8828125,-57.6171875,-32.71484375
-23.4375,-13.18359375,-52.24609375,-41.9921875
-36.62109375,-84.9609375,-54.19921875,-46.875
-49.8046875,-115.72265625,-64.453125,-50.78125
-49.31640625,-29.296875,-63.4765625,-42.96875
-35.15625,21.97265625,-54.19921875,-35.15625
-30.2734375,-23.92578125,-52.734375,-43.45703125
-47.8515625,-81.0546875,-55.6640625,-57.6171875
-71.2890625,-84.9609375,-50.78125,-55.6640625
-72.75390625,-71.2890625,-49.8046875,-41.015625
-48.828125,-36.1328125,-54.19921875,-41.015625
-34.1796875,-2.44140625,-52.24609375,-50.29296875
-40.0390625,-67.87109375,-50.78125,-58.10546875
-49.31640625,-116.69921875,-53.7109375,-56.640625
-54.19921875,-65.4296875,-48.33984375,-38.57421875
-42.48046875,13.18359375,-41.50390625,-22.94921875
-21.97265625,14.16015625,-41.50390625,-29.78515625
-26.3671875,-61.5234375,-46.38671875,-45.41015625
-43.9453125,-93.75,-53.22265625,-43.45703125
-48.33984375,-84.9609375,-47.36328125,-25.390625
-34.1796875,15.625,-42.48046875,-16.6015625
-11.23046875,8.30078125,-43.9453125,-17.08984375
-14.6484375,-80.078125,-46.38671875,-28.80859375
-43.45703125,-98.14453125,-53.7109375,-41.9921875
-57.6171875,-104.98046875,-52.24609375,-33.69140625
-41.015625,-16.6015625,-52.734375,-27.83203125
-19.53125,12.6953125,-53.22265625,-33.203125
-19.04296875,-55.6640625,-49.8046875,-37.109375
-39.55078125,-101.5625,-53.22265625,-42.48046875
-64.94140625,-77.63671875,-55.6640625,-43.9453125
-66.40625,-11.71875,-54.19921875,-44.921875
-37.59765625,23.92578125,-48.828125,-42.48046875
-27.34375,9.27734375,-41.015625,-45.41015625
-51.26953125,-94.7265625,-40.0390625,-58.59375
-67.3828125,-131.8359375,-44.43359375,-55.6640625
-54.19921875,-18.06640625,-42.96875,-38.0859375
-34.1796875,8.30078125,-33.203125,-26.3671875
-23.4375,-22.4609375,-35.15625,-32.71484375
-44.43359375,-72.265625,-48.33984375,-53.22265625
-82.51953125,-117.1875,-51.26953125,-68.359375
-70.3125,-35.15625,-50.78125,-55.17578125
-29.296875,12.6953125,-47.36328125,-30.2734375
-15.13671875,-18.06640625,-44.921875,-32.2265625
-27.83203125,-83.49609375,-47.8515625,-43.9453125
-43.9453125,-73.2421875,-51.7578125,-40.0390625
-52.24609375,-34.1796875,-57.6171875,-26.3671875
-23.4375,-10.25390625,-53.22265625,-11.23046875
-12.6953125,2.44140625,-52.734375,-25.87890625
-37.59765625,-79.1015625,-55.6640625,-49.8046875
-59.08203125,-120.1171875,-57.12890625,-54.6875
-61.03515625,-40.52734375,-61.5234375,-37.59765625
-33.203125,12.6953125,-55.17578125,-24.4140625
-23.4375,13.671875,-54.6875,-39.0625
-43.45703125,-59.08203125,-55.17578125,-61.5234375
-62.98828125,-124.0234375,-56.640625,-63.4765625
-70.80078125,-46.875,-60.546875,-47.8515625
-55.6640625,26.3671875,-59.08203125,-45.8984375
-36.62109375,-27.34375,-59.5703125,-60.05859375
-48.828125,-93.26171875,-62.5,-74.70703125
-79.1015625,-90.8203125,-60.05859375,-82.03125
-80.078125,-71.2890625,-57.12890625,-67.3828125
-41.9921875,6.34765625,-56.640625,-38.0859375
-21.484375,25.390625,-53.7109375,-35.64453125
-29.296875,-47.36328125,-49.8046875,-55.6640625
-54.19921875,-93.75,-50.29296875,-68.359375
-72.75390625,-65.4296875,-53.7109375,-56.640625
-42.48046875,20.99609375,-49.31640625,-34.66796875
-11.23046875,52.734375,-49.8046875,-31.73828125
-9.27734375,-3.90625,-45.8984375,-37.59765625
-29.296875,-89.35546875,-47.36328125,-46.38671875
-52.24609375,-104.98046875,-56.15234375,-42.96875
-49.31640625,-20.01953125,-53.22265625,-36.1328125
-31.25,27.83203125,-46.875,-39.55078125
-31.73828125,-28.3203125,-41.9921875,-42.96875
-51.26953125,-108.3984375,-49.8046875,-56.640625
-64.94140625,-94.23828125,-55.17578125,-61.03515625
-57.6171875,-7.8125,-54.6875,-52.734375
-35.64453125,14.16015625,-53.22265625,-43.9453125
-29.78515625,-31.73828125,-51.7578125,-45.8984375
-44.43359375,-90.33203125,-51.7578125,-52.734375
-62.5,-75.68359375,-53.22265625,-59.08203125
-65.4296875,-36.1328125,-59.5703125,-57.12890625
-41.9921875,2.9296875,-53.22265625,-38.0859375
-39.55078125,-29.78515625,-48.33984375,-37.59765625
-60.546875,-125.48828125,-50.78125,-48.828125
-80.078125,-116.2109375,-52.24609375,-55.6640625
-78.125,-58.59375,-46.875,-42.96875
-43.45703125,14.6484375,-45.8984375,-28.80859375
-25.390625,7.8125,-42.96875,-31.73828125
-44.43359375,-93.26171875,-39.0625,-43.9453125
-59.5703125,-122.55859375,-44.43359375,-38.57421875
-55.6640625,-26.3671875,-44.43359375,-30.2734375
-39.55078125,51.7578125,-37.109375,-31.73828125
-27.34375,-2.44140625,-32.2265625,-34.66796875
-40.0390625,-108.88671875,-32.2265625,-48.828125
-64.94140625,-117.67578125,-37.59765625,-57.6171875
-70.3125,-44.921875,-41.9921875,-47.8515625
-47.8515625,21.97265625,-45.8984375,-42.48046875
-38.0859375,-4.8828125,-46.38671875,-47.36328125
-51.7578125,-107.91015625,-46.38671875,-62.01171875
-69.82421875,-126.46484375,-51.26953125,-78.125
-81.54296875,-72.265625,-48.33984375,-69.3359375
-61.03515625,9.765625,-44.43359375,-50.78125
-38.0859375,29.78515625,-43.9453125,-51.7578125
-45.8984375,-28.80859375,-45.41015625,-59.5703125
-62.5,-97.65625,-49.8046875,-63.4765625
-72.265625,-102.05078125,-58.59375,-57.6171875
-59.08203125,-11.71875,-58.10546875,-43.45703125
-40.0390625,16.6015625,-50.29296875,-41.015625
-42.96875,-60.05859375,-51.26953125,-59.08203125
-54.6875,-100.09765625,-55.17578125,-68.359375
-60.546875,-76.66015625,-50.29296875,-56.15234375
-49.31640625,-3.41796875,-45.41015625,-42.96875
-22.94921875,28.3203125,-45.8984375,-40.0390625
-29.78515625,-58.59375,-47.36328125,-54.6875
-50.29296875,-85.9375,-50.29296875,-62.98828125
-59.5703125,-72.75390625,-56.15234375,-52.24609375
-48.33984375,-39.55078125,-56.640625,-38.0859375
-26.3671875,-13.671875,-51.7578125,-32.71484375
-32.71484375,-41.9921875,-50.78125,-45.41015625
-48.828125,-97.65625,-50.78125,-57.6171875
-67.3828125,-114.74609375,-48.33984375,-53.22265625
-69.3359375,-37.59765625,-46.38671875,-46.38671875
-42.96875,15.625,-43.9453125,-34.1796875
-34.1796875,-22.94921875,-42.48046875,-32.2265625
-48.33984375,-92.7734375,-42.96875,-45.8984375
-63.96484375,-96.6796875,-43.45703125,-47.8515625
-70.80078125,-34.1796875,-42.96875,-41.50390625
-49.31640625,34.66796875,-41.9921875,-34.66796875
-41.50390625,0.9765625,-41.9921875,-41.50390625
-65.4296875,-130.859375,-44.921875,-63.96484375
-81.54296875,-143.5546875,-50.29296875,-68.84765625
-74.70703125,-45.41015625,-51.7578125,-54.19921875
-47.8515625,3.90625,-44.921875,-46.38671875
-29.78515625,-7.8125,-41.9921875,-51.26953125
-40.0390625,-77.1484375,-48.33984375,-54.6875
-57.12890625,-92.7734375,-50.78125,-48.33984375
-58.59375,-39.55078125,-42.96875,-31.73828125
-42.96875,3.41796875,-39.0625,-23.4375
-35.15625,10.7421875,-41.015625,-30.2734375
-41.50390625,-44.921875,-40.52734375,-45.41015625
-61.03515625,-123.046875,-44.43359375,-53.22265625
-69.82421875,-73.73046875,-47.36328125,-43.9453125
-51.7578125,5.37109375,-39.0625,-35.15625
-39.0625,-36.1328125,-43.45703125,-41.50390625
-39.55078125,-69.82421875,-50.29296875,-50.29296875
-54.6875,-102.5390625,-51.7578125,-56.15234375
-67.87109375,-86.42578125,-56.640625,-51.7578125
-60.546875,-7.8125,-56.640625,-42.96875
-43.9453125,-8.30078125,-56.15234375,-50.78125
-43.9453125,-68.359375,-53.7109375,-66.40625
-62.98828125,-112.3046875,-50.78125,-74.70703125
-76.171875,-70.80078125,-52.24609375,-65.4296875
-69.3359375,-29.296875,-50.78125,-51.7578125
-48.33984375,-35.15625,-46.875,-50.78125
-41.50390625,-56.15234375,-41.9921875,-55.17578125
-60.05859375,-116.2109375,-51.7578125,-70.3125
-76.66015625,-103.515625,-61.5234375,-72.75390625
-61.03515625,-22.94921875,-53.7109375,-52.24609375
-42.48046875,-7.8125,-48.33984375,-42.96875
-37.59765625,-50.29296875,-44.921875,-46.875
-51.26953125,-101.07421875,-45.8984375,-57.12890625
-68.84765625,-94.7265625,-40.52734375,-51.7578125
-67.87109375,-2.9296875,-35.64453125,-46.38671875
-58.10546875,40.0390625,-35.15625,-53.7109375
-64.453125,-55.17578125,-30.76171875,-62.98828125
-68.84765625,-122.55859375,-31.73828125,-69.82421875
-78.61328125,-117.1875,-32.2265625,-62.01171875
-92.7734375,-57.12890625,-43.9453125,-61.03515625
-58.59375,0.9765625,-46.875,-53.7109375
-33.203125,-21.97265625,-37.59765625,-49.31640625
-52.24609375,-97.16796875,-39.0625,-64.94140625
-75.68359375,-122.55859375,-42.48046875,-68.84765625
-68.84765625,-39.55078125,-44.43359375,-55.17578125
-41.015625,2.44140625,-41.015625,-43.9453125
-32.71484375,-23.92578125,-38.0859375,-47.36328125
-43.9453125,-80.078125,-39.55078125,-61.03515625
-62.98828125,-124.0234375,-40.0390625,-63.4765625
-67.3828125,-71.2890625,-41.015625,-50.78125
-42.96875,-16.6015625,-45.41015625,-40.0390625
-27.83203125,-25.87890625,-40.0390625,-41.50390625
-37.59765625,-76.171875,-35.64453125,-49.31640625
-54.19921875,-103.02734375,-43.45703125,-54.19921875
-61.5234375,-72.265625,-46.38671875,-45.41015625
-43.9453125,-10.25390625,-38.57421875,-30.76171875
-20.99609375,2.44140625,-33.69140625,-28.3203125
-26.3671875,-70.80078125,-38.0859375,-40.0390625
-47.8515625,-114.74609375,-45.41015625,-49.8046875
-51.26953125,-51.26953125,-48.828125,-39.55078125
-30.76171875,14.6484375,-46.38671875,-25.390625
-12.6953125,-10.25390625,-42.48046875,-17.08984375
-17.578125,-87.890625,-46.38671875,-32.71484375
-42.96875,-110.3515625,-49.31640625,-56.15234375
-59.08203125,-97.16796875,-46.875,-46.875
-49.8046875,-21.484375,-47.8515625,-28.3203125
-26.85546875,-2.9296875,-42.48046875,-25.390625
-27.34375,-50.29296875,-38.0859375,-38.0859375
-56.15234375,-107.421875,-44.43359375,-54.19921875
-77.1484375,-124.51171875,-50.29296875,-57.6171875
-67.87109375,-31.73828125,-47.8515625,-49.8046875
-41.9921875,41.50390625,-42.48046875,-41.9921875
-31.25,-59.08203125,-37.109375,-46.38671875
-48.33984375,-130.859375,-42.48046875,-58.59375
-66.89453125,-97.16796875,-45.41015625,-57.6171875
-54.19921875,-51.26953125,-42.96875,-43.45703125
-26.3671875,-14.6484375,-42.96875,-37.109375
-28.80859375,-40.52734375,-42.48046875,-45.8984375
-52.24609375,-83.49609375,-46.38671875,-57.12890625
-65.91796875,-107.421875,-49.8046875,-58.59375
-64.94140625,-49.8046875,-51.26953125,-44.921875
-41.50390625,-3.41796875,-45.8984375,-33.69140625
-35.15625,-36.1328125,-44.43359375,-39.55078125
-42.96875,-68.84765625,-49.8046875,-46.875
-62.5,-102.5390625,-51.26953125,-51.7578125
-78.61328125,-62.5,-57.6171875,-56.15234375
-47.8515625,6.8359375,-51.26953125,-46.875
-38.0859375,-25.87890625,-41.50390625,-50.29296875
-45.41015625,-68.359375,-50.78125,-73.2421875
-61.03515625,-87.40234375,-55.17578125,-79.1015625
-74.21875,-62.01171875,-49.31640625,-65.4296875
-54.6875,6.34765625,-45.8984375,-56.15234375
-40.52734375,-3.41796875,-47.36328125,-59.08203125
-47.36328125,-63.96484375,-52.734375,-78.125
-75.1953125,-87.890625,-52.734375,-90.33203125
-78.61328125,-15.625,-51.26953125,-69.82421875
-58.10546875,9.27734375,-53.7109375,-50.29296875
-45.41015625,-23.92578125,-44.921875,-48.828125
-54.19921875,-74.21875,-44.43359375,-66.40625
-72.265625,-87.890625,-58.59375,-77.1484375
-77.1484375,-54.19921875,-68.359375,-68.359375
-60.546875,2.9296875,-65.91796875,-51.7578125
-37.59765625,5.859375,-54.19921875,-41.015625
-46.38671875,-53.7109375,-52.24609375,-53.22265625
-62.01171875,-83.0078125,-61.03515625,-62.01171875
-68.84765625,-83.984375,-58.10546875,-57.6171875
-57.6171875,4.8828125,-51.7578125,-46.38671875
-34.66796875,59.08203125,-50.29296875,-37.59765625
-28.3203125,-43.45703125,-50.29296875,-42.96875
-44.43359375,-112.79296875,-50.78125,-52.734375
-61.03515625,-71.2890625,-50.78125,-47.8515625
-59.08203125,-7.8125,-52.24609375,-29.78515625
-46.38671875,30.76171875,-47.8515625,-25.390625
-36.62109375,-20.99609375,-41.015625,-43.9453125
-49.8046875,-95.703125,-43.45703125,-57.12890625
-63.96484375,-87.40234375,-47.36328125,-53.7109375
-55.17578125,-25.390625,-43.45703125,-37.109375
-38.0859375,15.625,-39.55078125,-26.85546875
-24.90234375,-17.578125,-43.45703125,-33.203125
-29.78515625,-61.5234375,-47.8515625,-44.921875
-44.43359375,-91.796875,-47.36328125,-42.96875
-45.41015625,-42.96875,-49.31640625,-32.71484375
-21.484375,6.34765625,-46.875,-21.484375
-7.32421875,-35.15625,-44.43359375,-13.671875
-29.296875,-90.33203125,-43.9453125,-27.34375
-57.12890625,-96.19140625,-48.33984375,-36.62109375
-57.6171875,-42.48046875,-53.7109375,-25.87890625
-32.2265625,-13.18359375,-48.33984375,-8.30078125
-15.625,-1.953125,-41.015625,-7.32421875
-18.06640625,-58.10546875,-38.57421875,-21.484375
-38.0859375,-89.35546875,-46.38671875,-36.1328125
-48.828125,-8.7890625,-44.43359375,-26.3671875
-34.66796875,-5.37109375,-44.43359375,-18.06640625
-23.4375,-31.73828125,-41.9921875,-27.83203125
-29.78515625,-71.2890625,-32.71484375,-38.0859375
-52.734375,-119.62890625,-35.64453125,-45.41015625
-57.12890625,-64.453125,-36.62109375,-36.62109375
-37.109375,2.44140625,-34.66796875,-25.390625
-27.34375,10.25390625,-35.15625,-32.2265625
-30.2734375,-58.10546875,-35.64453125,-58.10546875
-43.9453125,-97.65625,-41.9921875,-67.3828125
-57.6171875,-72.75390625,-45.8984375,-56.640625
-42.96875,0.48828125,-38.57421875,-38.0859375
-21.484375,28.3203125,-34.66796875,-26.85546875
-29.78515625,-67.87109375,-41.9921875,-45.8984375
-58.10546875,-134.27734375,-47.36328125,-69.3359375
-71.77734375,-90.33203125,-43.9453125,-67.3828125
-54.19921875,-0.9765625,-44.43359375,-53.7109375
-28.3203125,18.5546875,-46.38671875,-41.015625
-33.69140625,-37.109375,-42.48046875,-54.19921875
-57.6171875,-98.6328125,-52.24609375,-72.265625
-63.96484375,-79.58984375,-60.05859375,-55.17578125
-46.875,-6.34765625,-48.33984375,-34.66796875
-31.73828125,6.8359375,-37.59765625,-33.69140625
-38.0859375,-16.11328125,-41.9921875,-47.36328125
-54.6875,-45.8984375,-45.41015625,-66.40625
-77.63671875,-89.84375,-44.43359375,-69.82421875
-73.73046875,-22.94921875,-46.875,-50.29296875
-46.875,13.671875,-46.875,-34.1796875
-36.1328125,-36.1328125,-42.48046875,-42.48046875
-52.734375,-86.42578125,-43.45703125,-62.5
-69.82421875,-82.51953125,-50.78125,-60.546875
-58.59375,0.0,-53.22265625,-43.45703125
-29.78515625,33.203125,-47.36328125,-25.87890625
-16.11328125,1.953125,-43.9453125,-24.90234375
-28.80859375,-78.125,-50.78125,-43.45703125
-54.19921875,-84.47265625,-58.10546875,-58.10546875
-58.59375,13.671875,-58.59375,-49.31640625
-23.92578125,13.671875,-47.36328125,-22.94921875
-8.7890625,-36.62109375,-41.9921875,-25.390625
-25.87890625,-90.33203125,-50.29296875,-52.24609375
-53.7109375,-97.16796875,-57.6171875,-63.96484375
-58.59375,-27.83203125,-62.5,-49.8046875
-23.92578125,23.4375,-56.15234375,-27.34375
-5.37109375,-10.7421875,-49.31640625,-28.80859375
-16.11328125,-79.1015625,-52.734375,-51.26953125
-40.0390625,-103.515625,-58.10546875,-59.5703125
-57.6171875,-65.91796875,-65.4296875,-48.828125
-41.9921875,2.9296875,-67.3828125,-35.64453125
-24.90234375,16.6015625,-62.5,-36.1328125
-33.69140625,-76.171875,-60.05859375,-53.22265625
-69.3359375,-159.1796875,-66.89453125,-64.94140625
-76.66015625,-89.84375,-68.84765625,-49.8046875
-53.7109375,-8.30078125,-60.05859375,-29.296875
-41.9921875,-26.85546875,-57.6171875,-27.83203125
-43.45703125,-87.40234375,-59.5703125,-42.48046875
-66.89453125,-106.4453125,-63.4765625,-56.640625
-79.58984375,-89.84375,-64.453125,-54.19921875
-65.91796875,-39.0625,-62.98828125,-45.41015625
-43.9453125,-19.53125,-62.5,-41.50390625
-38.0859375,-77.63671875,-60.546875,-49.8046875
-52.734375,-87.40234375,-62.5,-57.6171875
-66.40625,-110.3515625,-67.3828125,-53.22265625
-51.7578125,-61.03515625,-63.96484375,-36.1328125
-20.01953125,11.71875,-49.8046875,-23.92578125
-15.13671875,-75.1953125,-46.38671875,-32.71484375
-38.57421875,-130.37109375,-52.24609375,-46.875
-59.08203125,-99.609375,-54.19921875,-44.43359375
-48.828125,-21.97265625,-48.828125,-21.484375
-23.4375,15.625,-43.45703125,-14.16015625
-21.484375,-26.85546875,-42.48046875,-35.64453125
-40.0390625,-93.75,-42.48046875,-53.7109375
-60.546875,-95.703125,-49.31640625,-58.10546875
-57.12890625,6.34765625,-52.24609375,-49.31640625
-39.55078125,9.765625,-48.828125,-39.55078125
-36.1328125,-53.7109375,-41.015625,-48.828125
-47.8515625,-91.796875,-40.0390625,-65.91796875
-61.5234375,-114.2578125,-49.8046875,-64.94140625
-69.3359375,-29.78515625,-52.24609375,-53.22265625
-59.08203125,20.5078125,-49.31640625,-54.19921875
-52.24609375,-33.69140625,-52.24609375,-68.359375
-51.7578125,-83.984375,-52.734375,-72.75390625
-60.546875,-102.05078125,-54.6875,-65.91796875
-75.1953125,-26.85546875,-62.5,-68.84765625
-69.3359375,11.71875,-61.03515625,-71.77734375
-55.6640625,3.90625,-57.6171875,-67.87109375
-56.640625,-61.5234375,-62.01171875,-82.03125
-85.9375,-125.9765625,-67.87109375,-100.09765625
-96.19140625,-59.5703125,-64.94140625,-83.0078125
-68.84765625,5.859375,-57.6171875,-61.03515625
-53.22265625,-6.8359375,-53.7109375,-61.5234375
-66.89453125,-48.828125,-58.10546875,-84.47265625
-91.30859375,-102.5390625,-62.98828125,-100.09765625
-97.65625,-54.6875,-58.59375,-79.58984375
-69.82421875,33.69140625,-51.7578125,-57.12890625
-51.7578125,-21.97265625,-50.78125,-65.91796875
-62.01171875,-73.2421875,-57.6171875,-83.984375
-75.1953125,-72.265625,-62.01171875,-89.84375
-90.8203125,-104.00390625,-69.82421875,-90.33203125
-77.1484375,-28.80859375,-72.265625,-77.1484375
-54.19921875,5.37109375,-69.3359375,-74.21875
-57.6171875,-60.05859375,-73.73046875,-87.890625
-73.2421875,-101.5625,-80.078125,-92.7734375
-92.28515625,-77.1484375,-83.0078125,-82.51953125
-83.0078125,-3.90625,-76.66015625,-62.01171875
-49.31640625,-11.71875,-70.3125,-41.9921875
-46.38671875,-63.4765625,-70.3125,-56.640625
-73.2421875,-88.8671875,-72.75390625,-82.03125
-77.63671875,-77.63671875,-70.3125,-70.3125
-58.10546875,-1.953125,-57.12890625,-41.015625
-38.0859375,6.34765625,-50.29296875,-31.73828125
-32.71484375,-75.1953125,-51.26953125,-48.33984375
-44.921875,-111.328125,-50.78125,-63.4765625
-55.6640625,-103.02734375,-53.7109375,-54.19921875
-53.22265625,-28.80859375,-50.78125,-36.1328125
-27.83203125,19.53125,-43.45703125,-24.90234375
-10.7421875,-42.48046875,-43.9453125,-31.73828125
-27.83203125,-97.16796875,-47.8515625,-51.7578125
-51.26953125,-87.890625,-50.29296875,-55.17578125
-53.22265625,-39.55078125,-50.29296875,-37.59765625
-24.4140625,1.953125,-41.015625,-18.5546875
-11.71875,7.8125,-34.1796875,-21.484375
-25.390625,-94.7265625,-37.59765625,-44.43359375
-38.57421875,-109.86328125,-38.0859375,-48.828125
-44.921875,-36.1328125,-37.109375,-31.73828125
-31.73828125,-20.99609375,-36.62109375,-21.484375
-22.4609375,-34.66796875,-33.69140625,-27.34375
-29.296875,-82.03125,-37.59765625,-39.55078125
-50.29296875,-105.46875,-41.50390625,-41.015625
-53.7109375,-45.41015625,-42.96875,-25.87890625
-23.92578125,13.671875,-42.96875,-8.30078125
-8.30078125,-14.16015625,-37.59765625,-10.7421875
-20.01953125,-72.265625,-35.64453125,-29.296875
-34.1796875,-74.21875,-34.66796875,-39.55078125
-38.0859375,-57.6171875,-38.57421875,-30.76171875
-23.92578125,-16.6015625,-39.0625,-17.08984375
-10.25390625,8.7890625,-35.15625,-16.6015625
-9.765625,-60.546875,-38.57421875,-33.69140625
-37.109375,-95.703125,-44.921875,-54.19921875
-62.98828125,-62.98828125,-48.828125,-48.828125
-44.43359375,-24.90234375,-44.43359375,-26.3671875
-23.4375,0.9765625,-35.64453125,-27.34375
-23.92578125,-40.52734375,-34.66796875,-42.48046875
-39.0625,-88.37890625,-43.45703125,-46.875
-51.7578125,-67.3828125,-45.41015625,-43.45703125
-44.921875,22.4609375,-45.41015625,-30.2734375
-20.01953125,11.71875,-44.43359375,-25.390625
-21.484375,-70.3125,-41.50390625,-37.59765625
-45.41015625,-85.9375,-49.31640625,-46.38671875
-54.19921875,-61.5234375,-49.8046875,-41.50390625
-42.96875,-8.30078125,-43.9453125,-22.94921875
-21.97265625,11.23046875,-43.45703125,-8.30078125
-22.4609375,-40.52734375,-41.015625,-19.04296875
-41.015625,-65.4296875,-42.48046875,-41.015625
-49.8046875,-70.80078125,-46.875,-41.9921875
-37.59765625,-48.828125,-50.29296875,-25.390625
-20.99609375,6.8359375,-45.41015625,-19.04296875
-17.578125,7.8125,-38.57421875,-27.34375
-31.73828125,-72.265625,-38.57421875,-41.50390625
-51.7578125,-104.98046875,-35.64453125,-42.96875
-47.36328125,-18.06640625,-28.80859375,-24.4140625
-25.390625,15.13671875,-29.78515625,-14.6484375
-19.04296875,-18.06640625,-33.203125,-28.80859375
-32.71484375,-73.73046875,-36.1328125,-50.29296875
-57.12890625,-92.28515625,-42.48046875,-57.6171875
-57.6171875,-28.3203125,-47.36328125,-39.0625
-34.1796875,15.625,-39.55078125,-18.5546875
-38.0859375,-18.06640625,-31.73828125,-38.57421875
-52.734375,-68.84765625,-36.1328125,-65.91796875
-64.453125,-56.15234375,-37.59765625,-67.3828125
-65.4296875,-31.25,-42.48046875,-48.33984375
-51.7578125,-39.0625,-37.109375,-40.0390625
-51.7578125,-35.64453125,-27.83203125,-50.78125
-60.546875,-82.51953125,-34.1796875,-62.98828125
-72.265625,-106.93359375,-42.96875,-67.87109375
-78.61328125,-53.22265625,-44.921875,-56.15234375
-60.546875,-3.90625,-37.59765625,-44.43359375
-40.0390625,-10.7421875,-32.71484375,-44.921875
-34.66796875,-65.4296875,-40.0390625,-55.17578125
-50.29296875,-95.703125,-45.41015625,-59.5703125
-72.75390625,-56.15234375,-48.828125,-55.6640625
-56.15234375,35.15625,-38.57421875,-35.64453125
-35.15625,1.46484375,-30.76171875,-26.85546875
-43.45703125,-80.56640625,-44.43359375,-50.78125
-59.08203125,-87.40234375,-47.8515625,-56.640625
-70.3125,-83.49609375,-41.015625,-44.43359375
-51.26953125,-16.11328125,-33.69140625,-23.92578125
-23.4375,5.859375,-28.80859375,-13.671875
-23.92578125,-63.4765625,-31.73828125,-37.109375
-43.45703125,-89.84375,-39.0625,-56.15234375
-52.24609375,-58.59375,-45.8984375,-49.8046875
-48.828125,-17.08984375,-45.41015625,-32.2265625
-37.109375,1.46484375,-41.9921875,-29.296875
-31.25,-39.55078125,-43.9453125,-41.015625
-47.36328125,-104.98046875,-46.38671875,-55.6640625
-65.91796875,-105.46875,-47.8515625,-55.17578125
-54.6875,-31.25,-44.43359375,-26.85546875
-29.78515625,0.0,-43.45703125,-16.11328125
-28.80859375,-38.0859375,-45.41015625,-32.2265625
-48.828125,-89.84375,-50.78125,-56.640625
-58.59375,-107.421875,-54.19921875,-55.6640625
-53.22265625,-41.015625,-54.6875,-38.0859375
-37.59765625,5.859375,-53.7109375,-32.71484375
-30.76171875,-46.38671875,-52.734375,-43.9453125
-45.8984375,-97.65625,-56.15234375,-62.01171875
-61.5234375,-80.078125,-53.22265625,-63.4765625
-62.5,-45.8984375,-50.29296875,-50.29296875
-41.015625,-5.37109375,-51.7578125,-36.1328125
-32.71484375,-35.15625,-60.546875,-42.48046875
-47.36328125,-97.16796875,-64.453125,-64.453125
-67.87109375,-114.74609375,-60.546875,-68.359375
-69.3359375,-58.59375,-59.5703125,-49.8046875
-45.8984375,-2.9296875,-54.6875,-31.25
-33.203125,-19.04296875,-53.22265625,-35.64453125
-39.55078125,-79.58984375,-55.6640625,-59.5703125
-63.4765625,-109.375,-60.05859375,-70.3125
-74.21875,-53.7109375,-57.6171875,-53.22265625
-52.24609375,5.859375,-53.7109375,-36.1328125
-35.64453125,-19.04296875,-53.22265625,-41.50390625
-41.9921875,-103.02734375,-51.7578125,-56.640625
-61.5234375,-122.0703125,-52.734375,-56.15234375
-69.3359375,-66.40625,-52.24609375,-48.828125
-49.8046875,-5.859375,-51.26953125,-39.55078125
-32.71484375,-16.11328125,-51.7578125,-38.0859375
-34.1796875,-60.546875,-51.26953125,-52.24609375
-52.734375,-88.8671875,-50.78125,-62.01171875
-65.4296875,-70.80078125,-52.24609375,-61.03515625
-52.24609375,-13.18359375,-46.875,-47.8515625
-39.55078125,12.20703125,-44.921875,-41.9921875
-44.921875,-21.97265625,-44.43359375,-54.19921875
-68.84765625,-90.33203125,-41.50390625,-65.91796875
-83.984375,-111.81640625,-45.8984375,-65.91796875
-68.359375,-31.73828125,-50.78125,-50.78125
-35.64453125,8.30078125,-42.96875,-37.59765625
-37.59765625,-45.41015625,-32.2265625,-51.7578125
-62.01171875,-76.171875,-34.66796875,-68.359375
-65.91796875,-68.84765625,-41.50390625,-58.10546875
-55.6640625,-3.90625,-37.59765625,-34.1796875
-41.9921875,15.625,-30.2734375,-34.66796875
-45.8984375,-53.7109375,-31.25,-50.29296875
-59.5703125,-102.5390625,-36.62109375,-64.453125
-72.265625,-57.12890625,-42.48046875,-64.94140625
-76.171875,-15.625,-41.015625,-48.33984375
-50.29296875,-24.4140625,-34.66796875,-38.0859375
-33.69140625,-37.109375,-34.1796875,-44.921875
-56.15234375,-98.6328125,-40.0390625,-57.6171875
-85.9375,-107.91015625,-39.55078125,-61.5234375
-90.8203125,-41.9921875,-38.57421875,-49.31640625
-65.91796875,2.44140625,-36.1328125,-38.57421875
-49.8046875,-16.6015625,-35.15625,-45.8984375
-61.5234375,-83.984375,-41.50390625,-62.5
-78.125,-105.95703125,-49.31640625,-69.3359375
-74.70703125,-36.62109375,-47.8515625,-52.24609375
-50.29296875,22.94921875,-38.57421875,-34.66796875
-41.50390625,-26.3671875,-40.0390625,-38.0859375
-56.15234375,-104.00390625,-45.8984375,-56.640625
-65.91796875,-105.95703125,-41.50390625,-57.6171875
-65.4296875,-48.33984375,-39.55078125,-40.0390625
-52.734375,20.5078125,-42.96875,-36.1328125
-36.1328125,-11.23046875,-39.0625,-39.55078125
-33.69140625,-107.91015625,-34.66796875,-45.8984375
-52.24609375,-103.02734375,-38.57421875,-54.6875
-61.03515625,-49.8046875,-40.52734375,-45.41015625
-39.0625,-18.06640625,-37.59765625,-25.87890625
-16.6015625,-4.39453125,-37.109375,-25.390625
-19.53125,-26.85546875,-39.55078125,-38.0859375
-46.875,-102.05078125,-45.8984375,-51.26953125
-64.453125,-105.95703125,-48.828125,-50.29296875
-48.33984375,-9.765625,-45.41015625,-35.15625
-22.94921875,-4.8828125,-37.59765625,-30.2734375
-26.85546875,-78.61328125,-40.52734375,-44.921875
-53.22265625,-107.91015625,-48.33984375,-60.05859375
-62.98828125,-81.0546875,-48.33984375,-57.6171875
-51.7578125,-1.953125,-48.828125,-36.62109375
-36.1328125,15.13671875,-48.33984375,-28.80859375
-35.15625,-80.56640625,-49.31640625,-45.41015625
-52.24609375,-105.95703125,-49.8046875,-61.03515625
-68.84765625,-56.15234375,-54.19921875,-62.98828125
-60.05859375,-20.01953125,-56.640625,-50.78125
-33.69140625,-5.859375,-44.921875,-38.0859375
-31.73828125,-41.9921875,-41.9921875,-46.875
-43.45703125,-79.58984375,-46.875,-58.59375
-51.26953125,-69.3359375,-44.43359375,-49.8046875
-47.8515625,-13.671875,-43.9453125,-29.296875
-23.92578125,9.765625,-41.015625,-19.53125
-16.6015625,-40.0390625,-38.0859375,-29.296875
-33.203125,-80.56640625,-42.96875,-45.8984375
-50.78125,-79.1015625,-48.828125,-47.36328125
-30.76171875,7.32421875,-44.43359375,-25.390625
-8.30078125,35.64453125,-41.015625,-14.16015625
-15.625,-43.9453125,-42.96875,-24.4140625
-28.80859375,-113.76953125,-45.8984375,-43.9453125
-47.8515625,-110.3515625,-46.875,-46.875
-56.640625,-30.76171875,-48.828125,-35.15625
-33.203125,5.37109375,-44.921875,-26.85546875
-22.4609375,-31.73828125,-37.59765625,-25.87890625
-36.1328125,-88.8671875,-44.43359375,-43.9453125
-52.734375,-99.12109375,-48.33984375,-52.734375
-53.22265625,-26.3671875,-45.41015625,-40.0390625
-30.76171875,13.18359375,-44.43359375,-25.87890625
-19.04296875,-12.6953125,-41.015625,-28.3203125
-29.78515625,-48.33984375,-42.48046875,-46.38671875
-44.43359375,-113.28125,-47.36328125,-56.640625
-50.29296875,-59.08203125,-51.26953125,-50.78125
-35.15625,15.13671875,-49.31640625,-32.2265625
-13.671875,-33.69140625,-49.31640625,-30.2734375
-17.578125,-63.4765625,-49.8046875,-50.29296875
-48.828125,-102.5390625,-53.22265625,-63.96484375
-66.89453125,-77.63671875,-56.15234375,-57.6171875
-44.921875,3.41796875,-51.26953125,-38.57421875
-29.78515625,-0.9765625,-51.26953125,-42.96875
-43.45703125,-61.03515625,-52.24609375,-60.05859375
-65.4296875,-97.65625,-55.17578125,-67.3828125
-71.2890625,-52.24609375,-57.12890625,-59.08203125
-52.734375,-0.48828125,-54.19921875,-39.0625
-33.69140625,-10.7421875,-45.41015625,-32.2265625
-33.69140625,-60.05859375,-42.48046875,-45.8984375
-41.9921875,-95.703125,-45.41015625,-52.734375
-47.36328125,-61.03515625,-46.38671875,-42.48046875
-35.15625,15.13671875,-40.52734375,-20.5078125
-12.20703125,5.859375,-31.25,-14.16015625
-16.6015625,-69.3359375,-36.1328125,-32.2265625
-42.48046875,-99.609375,-42.96875,-49.31640625
-53.22265625,-83.0078125,-42.48046875,-57.12890625
-46.38671875,-26.85546875,-49.31640625,-47.36328125
-36.62109375,21.484375,-48.33984375,-41.9921875
-33.69140625,-31.25,-50.78125,-54.6875
-24.90234375,-119.140625,-58.10546875,-56.15234375
-47.36328125,-102.05078125,-41.9921875,-56.640625
-74.70703125,-21.484375,-37.59765625,-67.3828125
-50.78125,7.8125,-39.55078125,-57.6171875
-41.015625,-26.3671875,-35.15625,-51.7578125
-58.59375,-82.51953125,-33.203125,-65.4296875
-83.0078125,-84.9609375,-28.80859375,-72.265625
-82.51953125,-29.78515625,-31.25,-53.22265625
-49.31640625,-25.390625,-27.83203125,-38.57421875
-45.8984375,-31.25,-28.80859375,-58.59375
-62.01171875,-46.875,-31.73828125,-77.63671875
-80.56640625,-108.3984375,-28.80859375,-78.125
-97.16796875,-78.125,-22.4609375,-69.3359375
-69.3359375,6.34765625,-19.04296875,-51.7578125
-44.43359375,-23.92578125,-19.53125,-51.7578125
-59.5703125,-84.47265625,-21.484375,-70.3125
-79.1015625,-89.84375,-27.83203125,-71.77734375
-94.7265625,-54.19921875,-28.80859375,-65.4296875
-80.56640625,-8.30078125,-28.80859375,-60.546875
-60.05859375,-19.04296875,-28.3203125,-59.5703125
-62.5,-74.70703125,-26.3671875,-70.80078125
-78.125,-99.12109375,-30.2734375,-80.078125
-95.21484375,-51.26953125,-32.2265625,-69.3359375
-84.47265625,-7.8125,-31.73828125,-48.33984375
-58.10546875,-39.0625,-24.90234375,-36.62109375
-49.8046875,-88.8671875,-31.25,-51.7578125
-69.3359375,-102.5390625,-43.9453125,-67.3828125
-79.58984375,-59.08203125,-39.55078125,-59.08203125
-53.7109375,1.953125,-33.203125,-35.64453125
-38.57421875,-1.953125,-37.109375,-32.2265625
-37.59765625,-56.640625,-41.50390625,-44.921875
-59.08203125,-93.26171875,-49.8046875,-59.5703125
-78.125,-78.61328125,-55.17578125,-58.59375
-62.5,-1.46484375,-45.8984375,-38.57421875
-35.15625,27.83203125,-47.8515625,-28.3203125
-29.296875,-73.73046875,-51.7578125,-38.57421875
-41.015625,-117.1875,-46.875,-52.734375
-57.6171875,-80.56640625,-52.734375,-48.33984375
-54.6875,-37.109375,-53.22265625,-32.71484375
-33.203125,6.34765625,-46.875,-25.390625
-33.203125,-59.08203125,-48.828125,-39.0625
-46.38671875,-107.91015625,-50.29296875,-51.7578125
-52.734375,-88.37890625,-47.8515625,-50.29296875
-47.8515625,-31.25,-48.33984375,-40.52734375
-31.25,-1.953125,-53.22265625,-41.015625
-25.87890625,-29.78515625,-49.31640625,-48.828125
-42.48046875,-81.0546875,-51.26953125,-59.08203125
-68.359375,-122.55859375,-59.5703125,-65.4296875
-68.84765625,-65.4296875,-55.17578125,-45.41015625
-41.50390625,-3.90625,-47.8515625,-32.2265625
-38.0859375,-46.38671875,-47.8515625,-41.50390625
-49.31640625,-91.796875,-56.640625,-53.22265625
-55.17578125,-98.14453125,-58.59375,-54.19921875
-55.6640625,-72.75390625,-53.7109375,-40.0390625
-33.203125,-12.6953125,-52.24609375,-24.4140625
-20.99609375,-20.01953125,-45.41015625,-25.390625
-39.0625,-95.703125,-46.875,-44.921875
-58.10546875,-99.12109375,-51.7578125,-56.640625
-62.5,-14.16015625,-51.7578125,-43.45703125
-45.8984375,-10.25390625,-49.8046875,-34.1796875
-31.73828125,-41.015625,-42.96875,-42.48046875
-32.71484375,-67.87109375,-42.48046875,-53.22265625
-51.7578125,-96.6796875,-44.921875,-61.5234375
-60.05859375,-47.8515625,-50.78125,-54.19921875
-32.2265625,9.765625,-44.921875,-32.71484375
-28.3203125,-10.25390625,-36.62109375,-44.43359375
-34.1796875,-50.78125,-42.96875,-65.91796875
-47.36328125,-79.58984375,-40.52734375,-67.3828125
-80.078125,-76.66015625,-39.55078125,-75.68359375
-77.1484375,-5.859375,-41.015625,-66.89453125
-57.6171875,22.94921875,-37.59765625,-53.7109375
-58.59375,-61.5234375,-38.0859375,-65.91796875
-71.77734375,-103.02734375,-44.43359375,-78.125
-79.58984375,-71.77734375,-51.26953125,-71.2890625
-63.96484375,-13.18359375,-48.828125,-48.33984375
-45.8984375,13.18359375,-40.52734375,-43.9453125
-46.875,-53.22265625,-36.1328125,-60.05859375
-57.12890625,-93.75,-40.0390625,-64.453125
-66.89453125,-71.2890625,-44.43359375,-58.10546875
-59.5703125,-8.30078125,-50.78125,-49.8046875
-38.0859375,3.41796875,-45.8984375,-43.9453125
